*****  MODTRAN3 Version 1.3  12/1/95  *****
0 CARD 1  *****T   1    3    1    0    0    0    0    0    0    0    0    0   -1   0.000  -1.00
 co2mx co2rat ch4rat h2orat t_o3rat s_o3rat scalefreon    400.00000       1.2121212       1.0000000       1.0000000       1.0000000       1.0000000       1.0000000    
0 CARD 2  *****    0    0    0    0    0    0     0.000     0.000     0.000     0.000     0.000
0 CARD 3  *****     0.001     0.000   180.000     0.000     0.000     0.000    0
0 CARD 4  *****         2      2200         2         3
0 PROGRAM WILL COMPUTE RADIANCE                
0 ATMOSPHERIC MODEL
          TEMPERATURE =    1     TROPICAL MODEL      
          WATER VAPOR =    1     TROPICAL MODEL      
          OZONE       =    1     TROPICAL MODEL      
                      M4 =     1 M5 =     1 M6 =     1 MDEF =     1
0 SLANT PATH TO SPACE
          H1    =      0.001 KM
          HMIN  =      0.000 KM
          ANGLE =    180.000 DEG
0 FREQUENCY RANGE
             IV1 =         2 CM-1  (   5000.00 MICROMETERS)
             IV2 =      2200 CM-1  (      4.55 MICROMETERS)
             IDV =         2 CM-1
           IFWHM =         3 CM-1
1
  ATMOSPHERIC PROFILES

   I     Z       P       T        N2       CNTMSLF MOL SCAT     N-1     O3 (UV)  O2 (UV)
        (KM)    (MB)    (K)            (MOL/CM2 KM)   (-)       (-)  (ATM CM/KM) (ATM CM/KM)

   1     0.00 1013.000  299.7  7.622E-01 1.623E+21 9.112E-01 2.609E-04 2.612E-03 3.342E+04
   2     1.00  904.000  293.7  6.321E-01 7.602E+20 8.298E-01 2.379E-04 2.612E-03 2.927E+04
   3     2.00  805.000  287.7  5.223E-01 3.892E+20 7.543E-01 2.164E-04 2.519E-03 2.562E+04
   4     3.00  715.000  283.7  4.238E-01 9.924E+19 6.794E-01 1.951E-04 2.379E-03 2.219E+04
   5     4.00  633.000  277.0  3.484E-01 2.176E+19 6.160E-01 1.771E-04 2.192E-03 1.945E+04
   6     5.00  559.000  270.3  2.853E-01 1.012E+19 5.575E-01 1.603E-04 2.099E-03 1.703E+04
   7     6.00  492.000  263.6  2.324E-01 3.249E+18 5.032E-01 1.447E-04 2.006E-03 1.490E+04
   8     7.00  432.000  257.0  1.885E-01 9.917E+17 4.531E-01 1.303E-04 1.912E-03 1.302E+04
   9     8.00  378.000  250.3  1.522E-01 2.810E+17 4.071E-01 1.171E-04 1.819E-03 1.138E+04
  10     9.00  329.000  243.6  1.217E-01 6.471E+16 3.641E-01 1.047E-04 1.819E-03 9.902E+03
  11    10.00  286.000  237.0  9.716E-02 1.125E+16 3.253E-01 9.356E-05 1.819E-03 8.629E+03
  12    11.00  247.000  230.1  7.688E-02 1.299E+15 2.894E-01 8.322E-05 1.912E-03 7.496E+03
  13    12.00  213.000  223.6  6.054E-02 1.618E+14 2.568E-01 7.385E-05 2.006E-03 6.507E+03
  14    13.00  182.000  217.0  4.693E-02 1.456E+13 2.261E-01 6.503E-05 2.099E-03 5.608E+03
  15    14.00  156.000  210.3  3.671E-02 4.497E+12 2.000E-01 5.751E-05 2.098E-03 4.870E+03
  16    15.00  132.000  203.7  2.802E-02 1.419E+12 1.747E-01 5.024E-05 2.193E-03 4.178E+03
  17    16.00  111.000  197.0  2.118E-02 6.036E+11 1.519E-01 4.368E-05 2.192E-03 3.572E+03
  18    17.00   93.700  194.8  1.544E-02 4.110E+11 1.297E-01 3.729E-05 3.240E-03 3.000E+03
  19    18.00   78.900  198.8  1.051E-02 2.516E+11 1.070E-01 3.077E-05 5.346E-03 2.433E+03
  20    19.00   66.600  202.7  7.202E-03 1.542E+11 8.857E-02 2.547E-05 8.409E-03 1.986E+03
  21    20.00   56.500  206.7  4.985E-03 1.067E+11 7.369E-02 2.119E-05 1.031E-02 1.633E+03
  22    21.00   48.000  210.7  3.463E-03 7.699E+10 6.141E-02 1.766E-05 1.105E-02 1.348E+03
  23    22.00   40.900  214.6  2.423E-03 6.016E+10 5.138E-02 1.478E-05 1.232E-02 1.119E+03
  24    23.00   35.000  217.0  1.736E-03 4.622E+10 4.348E-02 1.250E-05 1.477E-02 9.409E+02
  25    24.00   30.000  219.2  1.250E-03 4.052E+10 3.689E-02 1.061E-05 1.585E-02 7.942E+02
  26    25.00   25.700  221.4  8.990E-04 3.007E+10 3.129E-02 9.000E-06 1.689E-02 6.705E+02
  27    30.00   12.200  232.3  1.840E-04 9.323E+09 1.416E-02 4.072E-06 1.316E-02 2.992E+02
  28    35.00    6.000  243.1  4.064E-05 2.723E+09 6.654E-03 1.914E-06 6.450E-03 1.397E+02
  29    40.00    3.050  254.0  9.620E-06 8.236E+08 3.237E-03 9.310E-07 2.426E-03 6.779E+01
  30    45.00    1.590  264.8  2.405E-06 2.475E+08 1.619E-03 4.655E-07 7.279E-04 3.385E+01
  31    50.00    0.854  270.2  6.665E-07 7.597E+07 8.520E-04 2.450E-07 2.384E-04 1.781E+01
  32    70.00    0.058  218.9  4.684E-09 3.003E+05 7.143E-05 2.054E-08 2.141E-06 1.492E+00
  33   100.00    0.000  190.7  1.532E-13 7.763E-02 4.085E-07 1.175E-10 1.633E-08 6.532E-03
1
  ATMOSPHERIC PROFILES

   I     Z       P       T      CNTMFRN     HNO3    AEROSOL 1 AEROSOL 2 AEROSOL 3 AEROSOL 4 AER1*RH   CIRRUS         RH
        (KM)    (MB)    (K)   MOL/CM2 KM ATM CM/KM   (-)       (-)       (-)       (-)       (-)       (-)      (PERCNT)

   1     0.00 1013.000  299.7  6.101E+22 0.000E+00 0.000E+00 0.000E+00 0.000E+00 0.000E+00 0.000E+00 0.000E+00 7.553E+01
   2     1.00  904.000  293.7  3.828E+22 0.000E+00 0.000E+00 0.000E+00 0.000E+00 0.000E+00 0.000E+00 0.000E+00 7.277E+01
   3     2.00  805.000  287.7  2.500E+22 0.000E+00 0.000E+00 0.000E+00 0.000E+00 0.000E+00 0.000E+00 0.000E+00 7.451E+01
   4     3.00  715.000  283.7  1.145E+22 0.000E+00 0.000E+00 0.000E+00 0.000E+00 0.000E+00 0.000E+00 0.000E+00 4.825E+01
   5     4.00  633.000  277.0  4.881E+21 0.000E+00 0.000E+00 0.000E+00 0.000E+00 0.000E+00 0.000E+00 0.000E+00 3.491E+01
   6     5.00  559.000  270.3  3.015E+21 0.000E+00 0.000E+00 0.000E+00 0.000E+00 0.000E+00 0.000E+00 0.000E+00 3.771E+01
   7     6.00  492.000  263.6  1.544E+21 0.000E+00 0.000E+00 0.000E+00 0.000E+00 0.000E+00 0.000E+00 0.000E+00 3.479E+01
   8     7.00  432.000  257.0  7.690E+20 0.000E+00 0.000E+00 0.000E+00 0.000E+00 0.000E+00 0.000E+00 0.000E+00 3.198E+01
   9     8.00  378.000  250.3  3.680E+20 0.000E+00 0.000E+00 0.000E+00 0.000E+00 0.000E+00 0.000E+00 0.000E+00 2.947E+01
  10     9.00  329.000  243.6  1.580E+20 0.000E+00 0.000E+00 0.000E+00 0.000E+00 0.000E+00 0.000E+00 0.000E+00 2.535E+01
  11    10.00  286.000  237.0  5.886E+19 0.000E+00 0.000E+00 0.000E+00 0.000E+00 0.000E+00 0.000E+00 0.000E+00 1.951E+01
  12    11.00  247.000  230.1  1.780E+19 0.000E+00 0.000E+00 0.000E+00 0.000E+00 0.000E+00 0.000E+00 0.000E+00 1.315E+01
  13    12.00  213.000  223.6  5.573E+18 0.000E+00 0.000E+00 0.000E+00 0.000E+00 0.000E+00 0.000E+00 0.000E+00 9.253E+00
  14    13.00  182.000  217.0  1.472E+18 0.000E+00 0.000E+00 0.000E+00 0.000E+00 0.000E+00 0.000E+00 0.000E+00 5.881E+00
  15    14.00  156.000  210.3  7.236E+17 0.000E+00 0.000E+00 0.000E+00 0.000E+00 0.000E+00 0.000E+00 0.000E+00 7.410E+00
  16    15.00  132.000  203.7  3.551E+17 0.000E+00 0.000E+00 0.000E+00 0.000E+00 0.000E+00 0.000E+00 0.000E+00 9.923E+00
  17    16.00  111.000  197.0  2.014E+17 0.000E+00 0.000E+00 0.000E+00 0.000E+00 0.000E+00 0.000E+00 0.000E+00 1.677E+01
  18    17.00   93.700  194.8  1.419E+17 0.000E+00 0.000E+00 0.000E+00 0.000E+00 0.000E+00 0.000E+00 0.000E+00 1.924E+01
  19    18.00   78.900  198.8  9.158E+16 0.000E+00 0.000E+00 0.000E+00 0.000E+00 0.000E+00 0.000E+00 0.000E+00 8.321E+00
  20    19.00   66.600  202.7  5.934E+16 0.000E+00 0.000E+00 0.000E+00 0.000E+00 0.000E+00 0.000E+00 0.000E+00 3.752E+00
  21    20.00   56.500  206.7  4.107E+16 0.000E+00 0.000E+00 0.000E+00 0.000E+00 0.000E+00 0.000E+00 0.000E+00 1.818E+00
  22    21.00   48.000  210.7  2.908E+16 0.000E+00 0.000E+00 0.000E+00 0.000E+00 0.000E+00 0.000E+00 0.000E+00 9.217E-01
  23    22.00   40.900  214.6  2.150E+16 0.000E+00 0.000E+00 0.000E+00 0.000E+00 0.000E+00 0.000E+00 0.000E+00 5.033E-01
  24    23.00   35.000  217.0  1.595E+16 0.000E+00 0.000E+00 0.000E+00 0.000E+00 0.000E+00 0.000E+00 0.000E+00 3.313E-01
  25    24.00   30.000  219.2  1.267E+16 0.000E+00 0.000E+00 0.000E+00 0.000E+00 0.000E+00 0.000E+00 0.000E+00 2.401E-01
  26    25.00   25.700  221.4  9.258E+15 0.000E+00 0.000E+00 0.000E+00 0.000E+00 0.000E+00 0.000E+00 0.000E+00 1.611E-01
  27    30.00   12.200  232.3  2.333E+15 0.000E+00 0.000E+00 0.000E+00 0.000E+00 0.000E+00 0.000E+00 0.000E+00 2.817E-02
  28    35.00    6.000  243.1  5.924E+14 0.000E+00 0.000E+00 0.000E+00 0.000E+00 0.000E+00 0.000E+00 0.000E+00 5.440E-03
  29    40.00    3.050  254.0  1.585E+14 0.000E+00 0.000E+00 0.000E+00 0.000E+00 0.000E+00 0.000E+00 0.000E+00 1.173E-03
  30    45.00    1.590  264.8  4.345E+13 0.000E+00 0.000E+00 0.000E+00 0.000E+00 0.000E+00 0.000E+00 0.000E+00 2.777E-04
  31    50.00    0.854  270.2  1.267E+13 0.000E+00 0.000E+00 0.000E+00 0.000E+00 0.000E+00 0.000E+00 0.000E+00 1.041E-04
  32    70.00    0.058  218.9  6.679E+10 0.000E+00 0.000E+00 0.000E+00 0.000E+00 0.000E+00 0.000E+00 0.000E+00 6.767E-04
  33   100.00    0.000  190.7  1.942E+05 0.000E+00 0.000E+00 0.000E+00 0.000E+00 0.000E+00 0.000E+00 0.000E+00 1.583E-05
1
  ATMOSPHERIC PROFILES

   I      Z       P       T      H2O      O3       CO2      CO       CH4      N2O      O2       NH3      NO       NO2      SO2
         (KM)    (MB)    (K)  (                                    MBAR                                                       )
   1     0.00 1013.000  299.7  1.90E+01 2.87E-02 4.00E+02 0.00E+00 1.70E+00 0.00E+00 2.09E+05 0.00E+00 0.00E+00 0.00E+00 0.00E+00
   2     1.00  904.000  293.7  1.30E+01 3.15E-02 4.00E+02 0.00E+00 1.70E+00 0.00E+00 2.09E+05 0.00E+00 0.00E+00 0.00E+00 0.00E+00
   3     2.00  805.000  287.7  9.29E+00 3.34E-02 4.00E+02 0.00E+00 1.70E+00 0.00E+00 2.09E+05 0.00E+00 0.00E+00 0.00E+00 0.00E+00
   4     3.00  715.000  283.7  4.69E+00 3.50E-02 4.00E+02 0.00E+00 1.70E+00 0.00E+00 2.09E+05 0.00E+00 0.00E+00 0.00E+00 0.00E+00
   5     4.00  633.000  277.0  2.20E+00 3.56E-02 4.00E+02 0.00E+00 1.70E+00 0.00E+00 2.09E+05 0.00E+00 0.00E+00 0.00E+00 0.00E+00
   6     5.00  559.000  270.3  1.50E+00 3.77E-02 4.00E+02 0.00E+00 1.70E+00 0.00E+00 2.09E+05 0.00E+00 0.00E+00 0.00E+00 0.00E+00
   7     6.00  492.000  263.6  8.49E-01 3.99E-02 4.00E+02 0.00E+00 1.70E+00 0.00E+00 2.09E+05 0.00E+00 0.00E+00 0.00E+00 0.00E+00
   8     7.00  432.000  257.0  4.69E-01 4.22E-02 4.00E+02 0.00E+00 1.70E+00 0.00E+00 2.09E+05 0.00E+00 0.00E+00 0.00E+00 0.00E+00
   9     8.00  378.000  250.3  2.50E-01 4.47E-02 4.00E+02 0.00E+00 1.70E+00 0.00E+00 2.09E+05 0.00E+00 0.00E+00 0.00E+00 0.00E+00
  10     9.00  329.000  243.6  1.20E-01 5.00E-02 4.00E+02 0.00E+00 1.69E+00 0.00E+00 2.09E+05 0.00E+00 0.00E+00 0.00E+00 0.00E+00
  11    10.00  286.000  237.0  5.00E-02 5.60E-02 4.00E+02 0.00E+00 1.68E+00 0.00E+00 2.09E+05 0.00E+00 0.00E+00 0.00E+00 0.00E+00
  12    11.00  247.000  230.1  1.70E-02 6.61E-02 4.00E+02 0.00E+00 1.67E+00 0.00E+00 2.09E+05 0.00E+00 0.00E+00 0.00E+00 0.00E+00
  13    12.00  213.000  223.6  5.99E-03 7.81E-02 4.00E+02 0.00E+00 1.66E+00 0.00E+00 2.09E+05 0.00E+00 0.00E+00 0.00E+00 0.00E+00
  14    13.00  182.000  217.0  1.80E-03 9.29E-02 4.00E+02 0.00E+00 1.64E+00 0.00E+00 2.09E+05 0.00E+00 0.00E+00 0.00E+00 0.00E+00
  15    14.00  156.000  210.3  9.99E-04 1.05E-01 4.00E+02 0.00E+00 1.63E+00 0.00E+00 2.09E+05 0.00E+00 0.00E+00 0.00E+00 0.00E+00
  16    15.00  132.000  203.7  5.61E-04 1.26E-01 4.00E+02 0.00E+00 1.61E+00 0.00E+00 2.09E+05 0.00E+00 0.00E+00 0.00E+00 0.00E+00
  17    16.00  111.000  197.0  3.66E-04 1.44E-01 4.00E+02 0.00E+00 1.58E+00 0.00E+00 2.09E+05 0.00E+00 0.00E+00 0.00E+00 0.00E+00
  18    17.00   93.700  194.8  3.02E-04 2.50E-01 4.00E+02 0.00E+00 1.55E+00 0.00E+00 2.09E+05 0.00E+00 0.00E+00 0.00E+00 0.00E+00
  19    18.00   78.900  198.8  2.36E-04 5.00E-01 4.00E+02 0.00E+00 1.52E+00 0.00E+00 2.09E+05 0.00E+00 0.00E+00 0.00E+00 0.00E+00
  20    19.00   66.600  202.7  1.85E-04 9.50E-01 4.00E+02 0.00E+00 1.48E+00 0.00E+00 2.09E+05 0.00E+00 0.00E+00 0.00E+00 0.00E+00
  21    20.00   56.500  206.7  1.54E-04 1.40E+00 4.00E+02 0.00E+00 1.42E+00 0.00E+00 2.09E+05 0.00E+00 0.00E+00 0.00E+00 0.00E+00
  22    21.00   48.000  210.7  1.31E-04 1.80E+00 4.00E+02 0.00E+00 1.36E+00 0.00E+00 2.09E+05 0.00E+00 0.00E+00 0.00E+00 0.00E+00
  23    22.00   40.900  214.6  1.16E-04 2.40E+00 4.00E+02 0.00E+00 1.27E+00 0.00E+00 2.09E+05 0.00E+00 0.00E+00 0.00E+00 0.00E+00
  24    23.00   35.000  217.0  1.01E-04 3.40E+00 4.00E+02 0.00E+00 1.19E+00 0.00E+00 2.09E+05 0.00E+00 0.00E+00 0.00E+00 0.00E+00
  25    24.00   30.000  219.2  9.48E-05 4.30E+00 4.00E+02 0.00E+00 1.12E+00 0.00E+00 2.09E+05 0.00E+00 0.00E+00 0.00E+00 0.00E+00
  26    25.00   25.700  221.4  8.17E-05 5.40E+00 4.00E+02 0.00E+00 1.05E+00 0.00E+00 2.09E+05 0.00E+00 0.00E+00 0.00E+00 0.00E+00
  27    30.00   12.200  232.3  4.55E-05 9.30E+00 4.00E+02 0.00E+00 9.14E-01 0.00E+00 2.09E+05 0.00E+00 0.00E+00 0.00E+00 0.00E+00
  28    35.00    6.000  243.1  2.46E-05 9.70E+00 4.00E+02 0.00E+00 7.46E-01 0.00E+00 2.09E+05 0.00E+00 0.00E+00 0.00E+00 0.00E+00
  29    40.00    3.050  254.0  1.35E-05 7.50E+00 4.00E+02 0.00E+00 5.64E-01 0.00E+00 2.09E+05 0.00E+00 0.00E+00 0.00E+00 0.00E+00
  30    45.00    1.590  264.8  7.41E-06 4.50E+00 4.00E+02 0.00E+00 3.63E-01 0.00E+00 2.09E+05 0.00E+00 0.00E+00 0.00E+00 0.00E+00
  31    50.00    0.854  270.2  4.11E-06 2.80E+00 4.00E+02 0.00E+00 2.10E-01 0.00E+00 2.09E+05 0.00E+00 0.00E+00 0.00E+00 0.00E+00
  32    70.00    0.058  218.9  2.58E-07 3.00E-01 4.00E+02 0.00E+00 1.50E-01 0.00E+00 2.09E+05 0.00E+00 0.00E+00 0.00E+00 0.00E+00
  33   100.00    0.000  190.7  1.31E-10 4.00E-01 2.36E+02 0.00E+00 1.20E-01 0.00E+00 1.60E+05 0.00E+00 0.00E+00 0.00E+00 0.00E+00
1
  ATMOSPHERIC PROFILES

   I      Z       P       T     CFC-11   CFC-12   CFC-13   CFC-14   CFC-22   CFC-113  CFC-114  CFC-115  CLONO2    HNO4    CHCL2F 
                                 CCL4     N2O5  
         (KM)    (MB)    (K)  (                                 ATM CM/KM                                                     )
   1     0.00 1013.000  299.7  1.27E-05 2.19E-05 9.11E-14 9.11E-14 5.46E-06 1.73E-06 1.09E-06 9.11E-14 5.24E-07 3.95E-08 9.11E-14
                               1.18E-05 2.20E-11
   2     1.00  904.000  293.7  1.16E-05 1.99E-05 8.29E-14 8.29E-14 4.97E-06 1.58E-06 9.95E-07 8.29E-14 4.25E-07 1.77E-07 8.29E-14
                               1.08E-05 7.91E-11
   3     2.00  805.000  287.7  1.06E-05 1.81E-05 7.54E-14 7.54E-14 4.52E-06 1.43E-06 9.05E-07 7.54E-14 3.40E-07 2.89E-07 7.54E-14
                               9.80E-06 1.26E-10
   4     3.00  715.000  283.7  9.51E-06 1.63E-05 6.79E-14 6.79E-14 4.06E-06 1.29E-06 8.15E-07 6.79E-14 2.64E-07 3.76E-07 6.79E-14
                               8.83E-06 1.61E-10
   5     4.00  633.000  277.0  8.62E-06 1.48E-05 6.16E-14 6.16E-14 3.68E-06 1.17E-06 7.39E-07 6.16E-14 2.01E-07 4.46E-07 6.16E-14
                               8.00E-06 1.90E-10
   6     5.00  559.000  270.3  7.80E-06 1.34E-05 5.57E-14 5.57E-14 3.33E-06 1.06E-06 6.69E-07 5.57E-14 1.53E-07 1.01E-06 5.57E-14
                               7.23E-06 2.01E-10
   7     6.00  492.000  263.6  7.04E-06 1.21E-05 5.03E-14 5.03E-14 3.00E-06 9.55E-07 6.03E-07 5.03E-14 1.13E-07 1.46E-06 5.03E-14
                               6.51E-06 2.07E-10
   8     7.00  432.000  257.0  6.34E-06 1.09E-05 4.53E-14 4.53E-14 2.70E-06 8.60E-07 5.43E-07 4.53E-14 7.90E-08 1.81E-06 4.53E-14
                               5.86E-06 2.10E-10
   9     8.00  378.000  250.3  5.70E-06 9.76E-06 4.07E-14 4.07E-14 2.43E-06 7.73E-07 4.88E-07 4.07E-14 5.04E-08 2.07E-06 4.07E-14
                               5.25E-06 2.10E-10
  10     9.00  329.000  243.6  5.09E-06 8.72E-06 3.64E-14 3.64E-14 2.17E-06 6.91E-07 4.37E-07 3.64E-14 4.40E-08 1.79E-06 3.64E-14
                               4.69E-06 2.10E-10
  11    10.00  286.000  237.0  4.54E-06 7.79E-06 3.25E-14 3.25E-14 1.94E-06 6.16E-07 3.90E-07 3.25E-14 3.82E-08 1.54E-06 3.25E-14
                               4.19E-06 2.07E-10
  12    11.00  247.000  230.1  4.03E-06 6.92E-06 2.89E-14 2.89E-14 1.72E-06 5.47E-07 3.47E-07 2.89E-14 3.31E-08 1.32E-06 2.89E-14
                               3.73E-06 2.02E-10
  13    12.00  213.000  223.6  3.57E-06 6.13E-06 2.57E-14 2.57E-14 1.53E-06 4.85E-07 3.08E-07 2.57E-14 2.85E-08 1.12E-06 2.57E-14
                               3.31E-06 1.94E-10
  14    13.00  182.000  217.0  3.05E-06 5.32E-06 2.26E-14 2.26E-14 1.33E-06 4.19E-07 2.68E-07 2.26E-14 1.81E-07 1.28E-06 2.26E-14
                               2.82E-06 9.96E-09
  15    14.00  156.000  210.3  2.62E-06 4.64E-06 2.00E-14 2.00E-14 1.17E-06 3.64E-07 2.35E-07 2.00E-14 2.98E-07 1.39E-06 2.00E-14
                               2.42E-06 1.75E-08
  16    15.00  132.000  203.7  2.22E-06 3.99E-06 1.75E-14 1.75E-14 1.01E-06 3.12E-07 2.03E-07 1.75E-14 3.81E-07 1.44E-06 1.75E-14
                               2.04E-06 2.28E-08
  17    16.00  111.000  197.0  1.87E-06 3.42E-06 1.52E-14 1.52E-14 8.68E-07 2.66E-07 1.75E-07 1.52E-14 4.36E-07 1.44E-06 1.52E-14
                               1.72E-06 2.64E-08
  18    17.00   93.700  194.8  1.46E-06 2.78E-06 1.30E-14 1.30E-14 7.21E-07 2.14E-07 1.45E-07 1.30E-14 1.32E-06 1.85E-06 1.30E-14
                               1.32E-06 1.14E-07
  19    18.00   78.900  198.8  1.09E-06 2.19E-06 1.07E-14 1.07E-14 5.78E-07 1.66E-07 1.16E-07 1.07E-14 1.86E-06 2.03E-06 1.07E-14
                               9.69E-07 1.69E-07
  20    19.00   66.600  202.7  8.05E-07 1.72E-06 8.85E-15 8.85E-15 4.65E-07 1.29E-07 9.32E-08 8.85E-15 2.19E-06 2.10E-06 8.85E-15
                               7.03E-07 2.02E-07
  21    20.00   56.500  206.7  5.91E-07 1.35E-06 7.36E-15 7.36E-15 3.75E-07 1.00E-07 7.51E-08 7.36E-15 2.36E-06 2.10E-06 7.36E-15
                               5.02E-07 2.20E-07
  22    21.00   48.000  210.7  4.21E-07 1.05E-06 6.14E-15 6.14E-15 3.00E-07 7.60E-08 5.99E-08 6.14E-15 2.82E-06 2.16E-06 6.14E-15
                               3.51E-07 2.54E-07
  23    22.00   40.900  214.6  2.93E-07 8.11E-07 5.13E-15 5.13E-15 2.41E-07 5.73E-08 4.78E-08 5.13E-15 3.08E-06 2.15E-06 5.13E-15
                               2.37E-07 2.72E-07
  24    23.00   35.000  217.0  1.98E-07 6.30E-07 4.35E-15 4.35E-15 1.95E-07 4.32E-08 3.85E-08 4.35E-15 3.22E-06 2.11E-06 4.35E-15
                               1.52E-07 2.80E-07
  25    24.00   30.000  219.2  1.25E-07 4.87E-07 3.69E-15 3.69E-15 1.59E-07 3.21E-08 3.10E-08 3.69E-15 3.24E-06 2.04E-06 3.69E-15
                               8.85E-08 2.81E-07
  26    25.00   25.700  221.4  8.53E-08 3.72E-07 3.13E-15 3.13E-15 1.28E-07 2.38E-08 2.49E-08 3.13E-15 3.04E-06 1.82E-06 3.13E-15
                               5.89E-08 2.41E-07
  27    30.00   12.200  232.3  5.52E-09 8.33E-08 1.41E-15 1.41E-15 4.28E-08 4.12E-09 7.97E-09 1.41E-15 1.61E-06 7.22E-07 1.41E-15
                               2.48E-09 7.81E-08
  28    35.00    6.000  243.1  1.32E-10 1.42E-08 6.65E-16 6.65E-16 1.38E-08 4.77E-10 2.43E-09 6.65E-16 3.48E-07 9.77E-08 6.65E-16
                               2.63E-11 7.19E-09
  29    40.00    3.050  254.0  5.98E-13 1.97E-09 3.23E-16 3.23E-16 4.50E-09 3.98E-11 7.50E-10 3.23E-16 1.38E-08 3.22E-09 3.23E-16
                               1.28E-14 6.89E-11
  30    45.00    1.590  264.8  1.49E-14 3.45E-10 1.62E-16 1.62E-16 1.68E-09 5.20E-12 2.62E-10 1.62E-16 2.72E-10 1.41E-10 1.62E-16
                               9.01E-17 6.37E-13
  31    50.00    0.854  270.2  5.08E-16 7.25E-11 8.51E-17 8.51E-17 7.48E-10 8.43E-13 1.06E-10 8.51E-17 3.97E-12 6.50E-12 8.51E-17
                               9.31E-19 5.35E-15
  32    70.00    0.058  218.9  3.63E-21 2.79E-13 7.14E-18 7.14E-18 5.13E-11 1.25E-15 4.18E-12 7.14E-18 5.16E-19 2.29E-16 7.14E-18
                               7.05E-26 5.85E-23
  33   100.00    0.000  190.7  1.27E-30 1.01E-18 4.08E-20 4.08E-20 7.31E-14 5.35E-22 8.70E-16 4.08E-20 3.30E-35 1.36E-31 4.08E-20
                               2.08E-38 0.00E+00


 CASE 3A: GIVEN H1,H2=SPACE,ANGLE



 TANGENT PATH WITH H1 =      0.001 AND ANGLE =    180.000 INTERSECTS THE EARTH

          H2 HAS BEEN RESET TO 0.0 AND LEN TO 0



 SLANT PATH PARAMETERS IN STANDARD FORM

          H1      =      0.001 KM
          H2      =      0.000 KM
          ANGLE   =    180.000 DEG
          PHI     =      0.000 DEG
          HMIN    =      0.000 KM
          LEN     =          0
1CALCULATION OF THE REFRACTED PATH THROUGH THE ATMOSPHERE


  I       ALTITUDE        THETA  DRANGE    RANGE    DBETA     BETA     PHI     DBEND  BENDING    PBAR    TBAR   RHOBAR
      FROM       TO
      (KM)      (KM)      (DEG)    (KM)     (KM)    (DEG)    (DEG)    (DEG)    (DEG)    (DEG)    (MB)    (K)  (GM CM-3)

          H2 TO H1

  1    0.000    0.001    0.000    0.001    0.001    0.000    0.000  180.000    0.000    0.000 1012.942  299.70 1.18E-03




1CUMULATIVE ABSORBER AMOUNTS FOR THE PATH FROM H1 TO Z

  J     Z        TBAR     HNO3        O3 UV      CNTMSLF1   CNTMSLF2    CNTMFRN      O2
       (KM)       (K)   (ATM CM)    (ATM CM)    (MOL CM-2)  (MOL CM-2)  (MOL CM-2)(MOL CM-2)

  1    0.000   299.70   0.000E+00   2.612E-06   1.622E+18  -1.666E+17   6.099E+19   3.342E+01



1 J     Z       N2 CONT    MOL SCAT       AER 1       AER 2       AER 3       AER 4       CIRRUS
       (KM)

  1    0.000   7.622E-04   9.111E-04   0.000E+00   0.000E+00   0.000E+00   0.000E+00   0.000E+00



1  J    Z       H2O       O3        CO2       CO        CH4       N2O       O2        NH3       NO        NO2       SO2
      (KM)    (                                                      ATM CM                                             )

   1    0.00  2.36E+00  2.61E-06  3.64E-02  0.00E+00  1.55E-04  0.00E+00  1.90E+01  0.00E+00  0.00E+00  0.00E+00  0.00E+00



1  J    Z      CFC-11    CFC-12    CFC-13    CFC-14    CFC-22    CFC-113   CFC-114   CFC-115   CLONO2     HNO4     CHCL2F 
                CCL4      N2O5  
      (KM)    (                                                   ATM CM                                                )

   1    0.00  1.28E-08  2.19E-08  9.10E-17  9.10E-17  5.46E-09  1.73E-09  1.09E-09  9.10E-17  5.23E-10  3.95E-11  9.10E-17
              1.18E-08  2.20E-14


0SUMMARY OF THE GEOMETRY CALCULATION

          H1      =      0.001 KM
          H2      =      0.000 KM
          ANGLE   =    180.000 DEG
          RANGE   =      0.001 KM
          BETA    =      0.000 DEG
          PHI     =      0.000 DEG
          HMIN    =      0.000 KM
          BENDING =      0.000 DEG
          LEN     =          0




1EQUIVALENT SEA LEVEL TOTAL ABSORBER AMOUNTS

                 HNO3      O3 UV       CNTMSLF1    CNTMSLF2   CNTMFRN
               (ATM CM)   (ATM CM)     (MOL CM-2)  (MOL CM-2)  (MOL CM-2)  (MOL CM-2)

             0.000E+00   2.612E-06   1.622E+18  -1.666E+17   6.099E+19


              N2 CONT    MOL SCAT       AER 1       AER 2       AER 3       AER 4     CIRRUS      MEAN RH
                                                                                                  (PRCNT)

             7.622E-04   9.111E-04   0.000E+00   0.000E+00   0.000E+00   0.000E+00   0.000E+00        0.00


                 H2O        O3          CO2         CO          CH4         N2O          O2
               (                                        ATM CM                            )

             2.360E+00   2.612E-06   3.642E-02   0.000E+00   1.548E-04   0.000E+00   1.903E+01

                 NH3        NO          NO2         SO2
                 (               ATM CM               )

             0.000E+00   0.000E+00   0.000E+00   0.000E+00

             CFC-11      CFC-12      CFC-13      CFC-14      CFC-22      CFC-113     CFC-114
                 (                                      ATM CM                            )

             1.275E-08   2.185E-08   9.103E-17   9.103E-17   5.463E-09   1.730E-09   1.093E-09

             CFC-115     CLONO2       HNO4       CHCL2F       CCL4        N2O5  
                 (                                      ATM CM                            )

             9.103E-17   5.235E-10   3.955E-11   9.103E-17   1.184E-08   2.205E-14
  iv           -5
  iv            0
1                                             RADIANCE(WATTS/CM2-STER-XXX)
0  FREQ   WAVLEN    PATH THERMAL      SURFACE EMISSION    SURFACE REFLECTED     TOTAL RADIANCE   INTEGRAL    TOTAL
  (CM-1) (MICRN)    (CM-1)   (MICRN)    (CM-1)   (MICRN)    (CM-1)   (MICRN)    (CM-1)   (MICRN)    (CM-1)   TRANS

      2. 4999.998  1.29E-12  5.17E-16  1.30E-09  5.20E-13  0.00E+00  0.00E+00  1.30E-09  5.20E-13  1.30E-09  0.99909
      4. 2500.000  8.73E-12  1.40E-14  4.16E-09  6.65E-12  0.00E+00  0.00E+00  4.17E-09  6.67E-12  9.64E-09  0.99849
      6. 1666.666  2.90E-11  1.04E-13  8.91E-09  3.21E-11  0.00E+00  0.00E+00  8.94E-09  3.22E-11  2.75E-08  0.99698
      8. 1250.000  5.08E-11  3.25E-13  1.55E-08  9.93E-11  0.00E+00  0.00E+00  1.56E-08  9.96E-11  5.86E-08  0.99680
     10. 1000.000  1.63E-10  1.63E-12  2.39E-08  2.39E-10  0.00E+00  0.00E+00  2.40E-08  2.40E-10  1.07E-07  0.99405
     12.  833.333  7.25E-10  1.04E-11  3.36E-08  4.84E-10  0.00E+00  0.00E+00  3.43E-08  4.94E-10  1.75E-07  0.98107
     14.  714.286  1.69E-09  3.31E-11  4.47E-08  8.76E-10  0.00E+00  0.00E+00  4.64E-08  9.09E-10  2.68E-07  0.96534
     16.  625.000  4.78E-09  1.22E-10  5.55E-08  1.42E-09  0.00E+00  0.00E+00  6.03E-08  1.54E-09  3.89E-07  0.92980
     18.  555.555  2.15E-08  6.97E-10  5.46E-08  1.77E-09  0.00E+00  0.00E+00  7.61E-08  2.47E-09  5.41E-07  0.73655
     20.  500.000  1.93E-08  7.73E-10  7.40E-08  2.96E-09  0.00E+00  0.00E+00  9.33E-08  3.73E-09  7.28E-07  0.77833
     22.  454.545  5.84E-09  2.83E-10  1.06E-07  5.14E-09  0.00E+00  0.00E+00  1.12E-07  5.42E-09  9.51E-07  0.94786
     24.  416.667  2.66E-08  1.53E-09  1.06E-07  6.12E-09  0.00E+00  0.00E+00  1.33E-07  7.66E-09  1.22E-06  0.81583
     26.  384.615  3.33E-08  2.25E-09  1.22E-07  8.24E-09  0.00E+00  0.00E+00  1.55E-07  1.05E-08  1.53E-06  0.77955
     28.  357.143  1.15E-08  9.02E-10  1.67E-07  1.31E-08  0.00E+00  0.00E+00  1.79E-07  1.40E-08  1.88E-06  0.93434
     30.  333.333  1.99E-08  1.79E-09  1.84E-07  1.66E-08  0.00E+00  0.00E+00  2.04E-07  1.84E-08  2.29E-06  0.90872
     32.  312.500  6.14E-08  6.29E-09  1.70E-07  1.74E-08  0.00E+00  0.00E+00  2.32E-07  2.37E-08  2.76E-06  0.74544
     34.  294.118  8.30E-08  9.59E-09  1.78E-07  2.05E-08  0.00E+00  0.00E+00  2.61E-07  3.01E-08  3.28E-06  0.68724
     36.  277.778  1.83E-07  2.37E-08  1.10E-07  1.42E-08  0.00E+00  0.00E+00  2.93E-07  3.79E-08  3.86E-06  0.39813
     38.  263.158  2.91E-07  4.20E-08  3.52E-08  5.08E-09  0.00E+00  0.00E+00  3.26E-07  4.71E-08  4.52E-06  0.11094
     40.  250.000  2.77E-07  4.43E-08  8.15E-08  1.30E-08  0.00E+00  0.00E+00  3.59E-07  5.74E-08  5.23E-06  0.22170
     42.  238.095  1.60E-07  2.82E-08  2.31E-07  4.07E-08  0.00E+00  0.00E+00  3.90E-07  6.89E-08  6.01E-06  0.58528
     44.  227.273  1.05E-07  2.03E-08  3.20E-07  6.20E-08  0.00E+00  0.00E+00  4.25E-07  8.23E-08  6.86E-06  0.75719
     46.  217.391  2.02E-07  4.28E-08  2.62E-07  5.53E-08  0.00E+00  0.00E+00  4.64E-07  9.82E-08  7.79E-06  0.57773
     48.  208.333  2.49E-07  5.74E-08  2.54E-07  5.85E-08  0.00E+00  0.00E+00  5.03E-07  1.16E-07  8.80E-06  0.50354
     50.  200.000  1.44E-07  3.61E-08  3.96E-07  9.91E-08  0.00E+00  0.00E+00  5.41E-07  1.35E-07  9.88E-06  0.73451
     52.  192.308  2.57E-07  6.95E-08  3.27E-07  8.84E-08  0.00E+00  0.00E+00  5.84E-07  1.58E-07  1.10E-05  0.57336
     54.  185.185  4.94E-07  1.44E-07  1.37E-07  4.00E-08  0.00E+00  0.00E+00  6.31E-07  1.84E-07  1.23E-05  0.22749
     56.  178.571  6.48E-07  2.03E-07  2.93E-08  9.19E-09  0.00E+00  0.00E+00  6.78E-07  2.13E-07  1.37E-05  0.04587
     58.  172.414  6.77E-07  2.28E-07  4.56E-08  1.53E-08  0.00E+00  0.00E+00  7.23E-07  2.43E-07  1.51E-05  0.06267
     60.  166.667  6.09E-07  2.19E-07  1.59E-07  5.71E-08  0.00E+00  0.00E+00  7.68E-07  2.76E-07  1.66E-05  0.20660
     62.  161.290  6.29E-07  2.42E-07  1.86E-07  7.15E-08  0.00E+00  0.00E+00  8.15E-07  3.13E-07  1.83E-05  0.23400
     64.  156.250  6.31E-07  2.58E-07  2.32E-07  9.52E-08  0.00E+00  0.00E+00  8.63E-07  3.54E-07  2.00E-05  0.26817
     66.  151.515  4.87E-07  2.12E-07  4.23E-07  1.84E-07  0.00E+00  0.00E+00  9.10E-07  3.96E-07  2.18E-05  0.46870
     68.  147.059  6.31E-07  2.92E-07  3.32E-07  1.54E-07  0.00E+00  0.00E+00  9.63E-07  4.45E-07  2.38E-05  0.35259
     70.  142.857  6.84E-07  3.35E-07  3.32E-07  1.63E-07  0.00E+00  0.00E+00  1.02E-06  4.98E-07  2.58E-05  0.33065
     72.  138.889  8.97E-07  4.65E-07  1.76E-07  9.12E-08  0.00E+00  0.00E+00  1.07E-06  5.56E-07  2.79E-05  0.17172
     74.  135.135  1.10E-06  6.03E-07  2.91E-08  1.59E-08  0.00E+00  0.00E+00  1.13E-06  6.19E-07  3.02E-05  0.02608
     76.  131.579  1.07E-06  6.21E-07  1.11E-07  6.41E-08  0.00E+00  0.00E+00  1.19E-06  6.85E-07  3.26E-05  0.09374
     78.  128.205  1.12E-06  6.81E-07  1.22E-07  7.42E-08  0.00E+00  0.00E+00  1.24E-06  7.56E-07  3.50E-05  0.10139
     80.  125.000  1.20E-06  7.71E-07  9.61E-08  6.15E-08  0.00E+00  0.00E+00  1.30E-06  8.32E-07  3.76E-05  0.07462
     82.  121.951  1.15E-06  7.74E-07  2.06E-07  1.38E-07  0.00E+00  0.00E+00  1.36E-06  9.13E-07  4.04E-05  0.15220
     84.  119.048  9.28E-07  6.55E-07  4.83E-07  3.41E-07  0.00E+00  0.00E+00  1.41E-06  9.96E-07  4.32E-05  0.34429
     86.  116.279  1.10E-06  8.16E-07  3.72E-07  2.75E-07  0.00E+00  0.00E+00  1.47E-06  1.09E-06  4.61E-05  0.26014
     88.  113.636  1.47E-06  1.14E-06  7.27E-08  5.63E-08  0.00E+00  0.00E+00  1.54E-06  1.19E-06  4.92E-05  0.04911
     90.  111.111  1.49E-06  1.21E-06  1.10E-07  8.90E-08  0.00E+00  0.00E+00  1.60E-06  1.30E-06  5.24E-05  0.06882
     92.  108.696  1.55E-06  1.31E-06  1.16E-07  9.84E-08  0.00E+00  0.00E+00  1.67E-06  1.41E-06  5.58E-05  0.07163
     94.  106.383  1.54E-06  1.36E-06  1.94E-07  1.71E-07  0.00E+00  0.00E+00  1.73E-06  1.53E-06  5.92E-05  0.11283
     96.  104.167  1.58E-06  1.45E-06  2.17E-07  2.00E-07  0.00E+00  0.00E+00  1.80E-06  1.65E-06  6.28E-05  0.12389
     98.  102.041  1.73E-06  1.66E-06  1.31E-07  1.26E-07  0.00E+00  0.00E+00  1.86E-06  1.79E-06  6.65E-05  0.07208
    100.  100.000  1.90E-06  1.90E-06  3.27E-08  3.27E-08  0.00E+00  0.00E+00  1.93E-06  1.93E-06  7.04E-05  0.01772
  iv          105
1                                             RADIANCE(WATTS/CM2-STER-XXX)
0  FREQ   WAVLEN    PATH THERMAL      SURFACE EMISSION    SURFACE REFLECTED     TOTAL RADIANCE   INTEGRAL    TOTAL
  (CM-1) (MICRN)    (CM-1)   (MICRN)    (CM-1)   (MICRN)    (CM-1)   (MICRN)    (CM-1)   (MICRN)    (CM-1)   TRANS

    102.   98.039  1.89E-06  1.97E-06  1.08E-07  1.13E-07  0.00E+00  0.00E+00  2.00E-06  2.08E-06  7.44E-05  0.05448
    104.   96.154  1.96E-06  2.12E-06  1.07E-07  1.16E-07  0.00E+00  0.00E+00  2.07E-06  2.24E-06  7.85E-05  0.05356
    106.   94.340  2.08E-06  2.33E-06  6.16E-08  6.92E-08  0.00E+00  0.00E+00  2.14E-06  2.40E-06  8.28E-05  0.02883
    108.   92.593  1.81E-06  2.11E-06  3.89E-07  4.54E-07  0.00E+00  0.00E+00  2.20E-06  2.57E-06  8.72E-05  0.17756
    110.   90.909  1.78E-06  2.15E-06  4.91E-07  5.94E-07  0.00E+00  0.00E+00  2.27E-06  2.75E-06  9.17E-05  0.22126
    112.   89.286  1.81E-06  2.27E-06  5.31E-07  6.66E-07  0.00E+00  0.00E+00  2.34E-06  2.93E-06  9.64E-05  0.22814
    114.   87.719  1.25E-06  1.62E-06  1.15E-06  1.50E-06  0.00E+00  0.00E+00  2.40E-06  3.12E-06  1.01E-04  0.48362
    116.   86.207  1.54E-06  2.08E-06  9.33E-07  1.26E-06  0.00E+00  0.00E+00  2.48E-06  3.33E-06  1.06E-04  0.38470
    118.   84.746  2.13E-06  2.97E-06  4.26E-07  5.93E-07  0.00E+00  0.00E+00  2.56E-06  3.56E-06  1.11E-04  0.17034
    120.   83.333  2.45E-06  3.53E-06  1.86E-07  2.68E-07  0.00E+00  0.00E+00  2.64E-06  3.80E-06  1.17E-04  0.07294
    122.   81.967  2.64E-06  3.93E-06  7.17E-08  1.07E-07  0.00E+00  0.00E+00  2.71E-06  4.04E-06  1.22E-04  0.02638
    124.   80.645  2.52E-06  3.87E-06  2.67E-07  4.11E-07  0.00E+00  0.00E+00  2.79E-06  4.28E-06  1.28E-04  0.09739
    126.   79.365  2.69E-06  4.28E-06  1.70E-07  2.69E-07  0.00E+00  0.00E+00  2.86E-06  4.55E-06  1.33E-04  0.06118
    128.   78.125  2.70E-06  4.43E-06  2.36E-07  3.87E-07  0.00E+00  0.00E+00  2.94E-06  4.81E-06  1.39E-04  0.08063
    130.   76.923  2.58E-06  4.35E-06  4.35E-07  7.34E-07  0.00E+00  0.00E+00  3.01E-06  5.09E-06  1.45E-04  0.14716
    132.   75.758  2.93E-06  5.10E-06  1.67E-07  2.90E-07  0.00E+00  0.00E+00  3.09E-06  5.39E-06  1.51E-04  0.05574
    134.   74.627  2.82E-06  5.07E-06  3.46E-07  6.22E-07  0.00E+00  0.00E+00  3.17E-06  5.69E-06  1.58E-04  0.10985
    136.   73.529  2.54E-06  4.70E-06  6.94E-07  1.28E-06  0.00E+00  0.00E+00  3.24E-06  5.99E-06  1.64E-04  0.21800
    138.   72.464  3.02E-06  5.76E-06  3.02E-07  5.74E-07  0.00E+00  0.00E+00  3.32E-06  6.33E-06  1.71E-04  0.09383
    140.   71.429  3.31E-06  6.49E-06  9.78E-08  1.92E-07  0.00E+00  0.00E+00  3.41E-06  6.68E-06  1.78E-04  0.02866
    142.   70.423  2.67E-06  5.39E-06  8.02E-07  1.62E-06  0.00E+00  0.00E+00  3.47E-06  7.00E-06  1.85E-04  0.23224
    144.   69.444  2.04E-06  4.22E-06  1.50E-06  3.11E-06  0.00E+00  0.00E+00  3.54E-06  7.34E-06  1.92E-04  0.42890
    146.   68.493  2.28E-06  4.87E-06  1.34E-06  2.85E-06  0.00E+00  0.00E+00  3.62E-06  7.72E-06  1.99E-04  0.37532
    148.   67.568  3.16E-06  6.91E-06  5.64E-07  1.23E-06  0.00E+00  0.00E+00  3.72E-06  8.15E-06  2.06E-04  0.15601
    150.   66.667  3.77E-06  8.47E-06  4.43E-08  9.96E-08  0.00E+00  0.00E+00  3.81E-06  8.57E-06  2.14E-04  0.01211
    152.   65.789  3.89E-06  8.98E-06  4.03E-09  9.32E-09  0.00E+00  0.00E+00  3.89E-06  8.99E-06  2.22E-04  0.00105
    154.   64.935  3.75E-06  8.90E-06  2.19E-07  5.19E-07  0.00E+00  0.00E+00  3.97E-06  9.41E-06  2.30E-04  0.05560
    156.   64.103  3.80E-06  9.24E-06  2.54E-07  6.17E-07  0.00E+00  0.00E+00  4.05E-06  9.86E-06  2.38E-04  0.06426
    158.   63.291  3.88E-06  9.68E-06  2.56E-07  6.40E-07  0.00E+00  0.00E+00  4.13E-06  1.03E-05  2.46E-04  0.06255
    160.   62.500  3.17E-06  8.12E-06  1.03E-06  2.63E-06  0.00E+00  0.00E+00  4.20E-06  1.08E-05  2.54E-04  0.24672
    162.   61.728  2.42E-06  6.36E-06  1.84E-06  4.83E-06  0.00E+00  0.00E+00  4.27E-06  1.12E-05  2.63E-04  0.43570
    164.   60.976  2.38E-06  6.40E-06  1.97E-06  5.29E-06  0.00E+00  0.00E+00  4.35E-06  1.17E-05  2.72E-04  0.45856
    166.   60.241  3.49E-06  9.62E-06  9.61E-07  2.65E-06  0.00E+00  0.00E+00  4.45E-06  1.23E-05  2.81E-04  0.22087
    168.   59.524  4.10E-06  1.16E-05  4.47E-07  1.26E-06  0.00E+00  0.00E+00  4.54E-06  1.28E-05  2.90E-04  0.10040
    170.   58.824  4.40E-06  1.27E-05  2.31E-07  6.66E-07  0.00E+00  0.00E+00  4.63E-06  1.34E-05  2.99E-04  0.05096
    172.   58.140  4.45E-06  1.32E-05  2.68E-07  7.93E-07  0.00E+00  0.00E+00  4.72E-06  1.40E-05  3.08E-04  0.05781
    174.   57.471  4.42E-06  1.34E-05  3.82E-07  1.16E-06  0.00E+00  0.00E+00  4.80E-06  1.45E-05  3.18E-04  0.08090
    176.   56.818  4.61E-06  1.43E-05  2.73E-07  8.46E-07  0.00E+00  0.00E+00  4.88E-06  1.51E-05  3.28E-04  0.05744
    178.   56.180  4.73E-06  1.50E-05  2.41E-07  7.64E-07  0.00E+00  0.00E+00  4.97E-06  1.57E-05  3.38E-04  0.04884
    180.   55.556  4.41E-06  1.43E-05  6.34E-07  2.05E-06  0.00E+00  0.00E+00  5.05E-06  1.63E-05  3.48E-04  0.12769
    182.   54.945  4.19E-06  1.39E-05  9.31E-07  3.08E-06  0.00E+00  0.00E+00  5.12E-06  1.70E-05  3.58E-04  0.18386
    184.   54.348  3.07E-06  1.04E-05  2.12E-06  7.17E-06  0.00E+00  0.00E+00  5.19E-06  1.76E-05  3.68E-04  0.41184
    186.   53.763  3.03E-06  1.05E-05  2.24E-06  7.75E-06  0.00E+00  0.00E+00  5.27E-06  1.82E-05  3.79E-04  0.43154
    188.   53.191  4.26E-06  1.51E-05  1.12E-06  3.94E-06  0.00E+00  0.00E+00  5.38E-06  1.90E-05  3.90E-04  0.21136
    190.   52.632  3.47E-06  1.25E-05  1.97E-06  7.13E-06  0.00E+00  0.00E+00  5.44E-06  1.97E-05  4.01E-04  0.36553
    192.   52.083  3.47E-06  1.28E-05  2.06E-06  7.58E-06  0.00E+00  0.00E+00  5.53E-06  2.04E-05  4.12E-04  0.37837
    194.   51.546  4.77E-06  1.80E-05  8.65E-07  3.25E-06  0.00E+00  0.00E+00  5.64E-06  2.12E-05  4.23E-04  0.15642
    196.   51.020  4.77E-06  1.83E-05  9.48E-07  3.64E-06  0.00E+00  0.00E+00  5.72E-06  2.20E-05  4.34E-04  0.16834
    198.   50.505  4.43E-06  1.74E-05  1.37E-06  5.35E-06  0.00E+00  0.00E+00  5.80E-06  2.27E-05  4.46E-04  0.23885
    200.   50.000  4.87E-06  1.95E-05  1.02E-06  4.08E-06  0.00E+00  0.00E+00  5.89E-06  2.36E-05  4.58E-04  0.17723
  iv          205
1                                             RADIANCE(WATTS/CM2-STER-XXX)
0  FREQ   WAVLEN    PATH THERMAL      SURFACE EMISSION    SURFACE REFLECTED     TOTAL RADIANCE   INTEGRAL    TOTAL
  (CM-1) (MICRN)    (CM-1)   (MICRN)    (CM-1)   (MICRN)    (CM-1)   (MICRN)    (CM-1)   (MICRN)    (CM-1)   TRANS

    202.   49.505  5.83E-06  2.38E-05  1.62E-07  6.59E-07  0.00E+00  0.00E+00  5.99E-06  2.44E-05  4.70E-04  0.02780
    204.   49.020  5.66E-06  2.35E-05  4.15E-07  1.73E-06  0.00E+00  0.00E+00  6.07E-06  2.53E-05  4.82E-04  0.06904
    206.   48.544  5.31E-06  2.25E-05  8.37E-07  3.55E-06  0.00E+00  0.00E+00  6.15E-06  2.61E-05  4.94E-04  0.13863
    208.   48.077  5.79E-06  2.51E-05  4.48E-07  1.94E-06  0.00E+00  0.00E+00  6.24E-06  2.70E-05  5.07E-04  0.07322
    210.   47.619  5.17E-06  2.28E-05  1.14E-06  5.03E-06  0.00E+00  0.00E+00  6.31E-06  2.78E-05  5.19E-04  0.18273
    212.   47.170  5.03E-06  2.26E-05  1.36E-06  6.12E-06  0.00E+00  0.00E+00  6.39E-06  2.87E-05  5.32E-04  0.21694
    214.   46.729  5.60E-06  2.57E-05  8.86E-07  4.06E-06  0.00E+00  0.00E+00  6.49E-06  2.97E-05  5.45E-04  0.13858
    216.   46.296  4.10E-06  1.91E-05  2.44E-06  1.14E-05  0.00E+00  0.00E+00  6.54E-06  3.05E-05  5.58E-04  0.37622
    218.   45.872  2.95E-06  1.40E-05  3.65E-06  1.73E-05  0.00E+00  0.00E+00  6.60E-06  3.14E-05  5.71E-04  0.55771
    220.   45.455  4.31E-06  2.09E-05  2.40E-06  1.16E-05  0.00E+00  0.00E+00  6.71E-06  3.25E-05  5.85E-04  0.36372
    222.   45.045  6.28E-06  3.10E-05  5.55E-07  2.73E-06  0.00E+00  0.00E+00  6.84E-06  3.37E-05  5.98E-04  0.08318
    224.   44.643  6.47E-06  3.24E-05  4.56E-07  2.29E-06  0.00E+00  0.00E+00  6.92E-06  3.47E-05  6.12E-04  0.06702
    226.   44.248  6.72E-06  3.43E-05  2.95E-07  1.51E-06  0.00E+00  0.00E+00  7.01E-06  3.58E-05  6.26E-04  0.04315
    228.   43.860  6.68E-06  3.47E-05  4.10E-07  2.13E-06  0.00E+00  0.00E+00  7.09E-06  3.69E-05  6.40E-04  0.05830
    230.   43.478  5.83E-06  3.08E-05  1.33E-06  7.02E-06  0.00E+00  0.00E+00  7.16E-06  3.79E-05  6.55E-04  0.18820
    232.   43.103  5.26E-06  2.83E-05  1.97E-06  1.06E-05  0.00E+00  0.00E+00  7.23E-06  3.89E-05  6.69E-04  0.27555
    234.   42.735  3.65E-06  2.00E-05  3.63E-06  1.99E-05  0.00E+00  0.00E+00  7.28E-06  3.99E-05  6.84E-04  0.50237
    236.   42.373  2.40E-06  1.34E-05  4.93E-06  2.75E-05  0.00E+00  0.00E+00  7.34E-06  4.09E-05  6.98E-04  0.67668
    238.   42.017  2.13E-06  1.20E-05  5.29E-06  2.99E-05  0.00E+00  0.00E+00  7.41E-06  4.20E-05  7.13E-04  0.71706
    240.   41.667  2.18E-06  1.26E-05  5.31E-06  3.06E-05  0.00E+00  0.00E+00  7.50E-06  4.32E-05  7.28E-04  0.71296
    242.   41.322  3.06E-06  1.79E-05  4.53E-06  2.65E-05  0.00E+00  0.00E+00  7.59E-06  4.45E-05  7.43E-04  0.60248
    244.   40.984  5.81E-06  3.46E-05  1.93E-06  1.15E-05  0.00E+00  0.00E+00  7.73E-06  4.60E-05  7.59E-04  0.25424
    246.   40.650  7.65E-06  4.63E-05  1.97E-07  1.19E-06  0.00E+00  0.00E+00  7.85E-06  4.75E-05  7.75E-04  0.02581
    248.   40.323  7.51E-06  4.62E-05  4.21E-07  2.59E-06  0.00E+00  0.00E+00  7.93E-06  4.88E-05  7.90E-04  0.05372
    250.   40.000  6.30E-06  3.94E-05  1.68E-06  1.05E-05  0.00E+00  0.00E+00  7.98E-06  4.99E-05  8.06E-04  0.21355
    252.   39.683  6.65E-06  4.22E-05  1.42E-06  9.03E-06  0.00E+00  0.00E+00  8.07E-06  5.13E-05  8.23E-04  0.17981
    254.   39.370  7.57E-06  4.89E-05  5.95E-07  3.84E-06  0.00E+00  0.00E+00  8.17E-06  5.27E-05  8.39E-04  0.07405
    256.   39.063  5.91E-06  3.87E-05  2.31E-06  1.51E-05  0.00E+00  0.00E+00  8.22E-06  5.38E-05  8.55E-04  0.28388
    258.   38.760  3.47E-06  2.31E-05  4.78E-06  3.18E-05  0.00E+00  0.00E+00  8.25E-06  5.49E-05  8.72E-04  0.58380
    260.   38.462  2.26E-06  1.53E-05  6.04E-06  4.08E-05  0.00E+00  0.00E+00  8.30E-06  5.61E-05  8.88E-04  0.73112
    262.   38.168  2.29E-06  1.57E-05  6.10E-06  4.18E-05  0.00E+00  0.00E+00  8.38E-06  5.75E-05  9.05E-04  0.73129
    264.   37.879  3.39E-06  2.36E-05  5.09E-06  3.55E-05  0.00E+00  0.00E+00  8.48E-06  5.91E-05  9.22E-04  0.60613
    266.   37.594  5.67E-06  4.01E-05  2.93E-06  2.08E-05  0.00E+00  0.00E+00  8.61E-06  6.09E-05  9.39E-04  0.34599
    268.   37.313  4.50E-06  3.23E-05  4.17E-06  2.99E-05  0.00E+00  0.00E+00  8.66E-06  6.22E-05  9.57E-04  0.48466
    270.   37.037  2.50E-06  1.82E-05  6.20E-06  4.52E-05  0.00E+00  0.00E+00  8.70E-06  6.34E-05  9.74E-04  0.71648
    272.   36.765  2.85E-06  2.11E-05  5.93E-06  4.39E-05  0.00E+00  0.00E+00  8.79E-06  6.50E-05  9.92E-04  0.67969
    274.   36.496  3.83E-06  2.87E-05  5.05E-06  3.79E-05  0.00E+00  0.00E+00  8.88E-06  6.67E-05  1.01E-03  0.57452
    276.   36.232  6.78E-06  5.16E-05  2.24E-06  1.71E-05  0.00E+00  0.00E+00  9.02E-06  6.87E-05  1.03E-03  0.25339
    278.   35.971  8.76E-06  6.77E-05  3.78E-07  2.92E-06  0.00E+00  0.00E+00  9.14E-06  7.06E-05  1.05E-03  0.04233
    280.   35.714  9.03E-06  7.08E-05  1.89E-07  1.49E-06  0.00E+00  0.00E+00  9.22E-06  7.23E-05  1.06E-03  0.02092
    282.   35.461  8.61E-06  6.85E-05  6.77E-07  5.38E-06  0.00E+00  0.00E+00  9.28E-06  7.38E-05  1.08E-03  0.07390
    284.   35.211  6.01E-06  4.85E-05  3.30E-06  2.66E-05  0.00E+00  0.00E+00  9.31E-06  7.51E-05  1.10E-03  0.35765
    286.   34.965  4.04E-06  3.31E-05  5.30E-06  4.34E-05  0.00E+00  0.00E+00  9.34E-06  7.64E-05  1.12E-03  0.57219
    288.   34.722  5.89E-06  4.88E-05  3.57E-06  2.96E-05  0.00E+00  0.00E+00  9.46E-06  7.84E-05  1.14E-03  0.38335
    290.   34.483  7.32E-06  6.16E-05  2.24E-06  1.88E-05  0.00E+00  0.00E+00  9.56E-06  8.04E-05  1.16E-03  0.23740
    292.   34.247  3.97E-06  3.39E-05  5.59E-06  4.77E-05  0.00E+00  0.00E+00  9.57E-06  8.16E-05  1.18E-03  0.58861
    294.   34.014  2.01E-06  1.74E-05  7.59E-06  6.56E-05  0.00E+00  0.00E+00  9.60E-06  8.30E-05  1.20E-03  0.79377
    296.   33.784  2.59E-06  2.27E-05  7.10E-06  6.22E-05  0.00E+00  0.00E+00  9.69E-06  8.49E-05  1.22E-03  0.73722
    298.   33.557  4.29E-06  3.81E-05  5.51E-06  4.89E-05  0.00E+00  0.00E+00  9.79E-06  8.70E-05  1.24E-03  0.56740
    300.   33.333  6.05E-06  5.45E-05  3.85E-06  3.46E-05  0.00E+00  0.00E+00  9.90E-06  8.91E-05  1.26E-03  0.39396
  iv          305
1                                             RADIANCE(WATTS/CM2-STER-XXX)
0  FREQ   WAVLEN    PATH THERMAL      SURFACE EMISSION    SURFACE REFLECTED     TOTAL RADIANCE   INTEGRAL    TOTAL
  (CM-1) (MICRN)    (CM-1)   (MICRN)    (CM-1)   (MICRN)    (CM-1)   (MICRN)    (CM-1)   (MICRN)    (CM-1)   TRANS

    302.   33.113  8.95E-06  8.16E-05  1.09E-06  9.92E-06  0.00E+00  0.00E+00  1.00E-05  9.15E-05  1.28E-03  0.11090
    304.   32.895  8.27E-06  7.64E-05  1.82E-06  1.68E-05  0.00E+00  0.00E+00  1.01E-05  9.33E-05  1.30E-03  0.18235
    306.   32.680  4.19E-06  3.93E-05  5.89E-06  5.51E-05  0.00E+00  0.00E+00  1.01E-05  9.44E-05  1.32E-03  0.58791
    308.   32.468  2.37E-06  2.25E-05  7.75E-06  7.35E-05  0.00E+00  0.00E+00  1.01E-05  9.60E-05  1.34E-03  0.76935
    310.   32.258  2.13E-06  2.04E-05  8.06E-06  7.74E-05  0.00E+00  0.00E+00  1.02E-05  9.78E-05  1.36E-03  0.79448
    312.   32.051  2.23E-06  2.17E-05  8.02E-06  7.81E-05  0.00E+00  0.00E+00  1.03E-05  9.98E-05  1.38E-03  0.78572
    314.   31.847  4.11E-06  4.05E-05  6.25E-06  6.17E-05  0.00E+00  0.00E+00  1.04E-05  1.02E-04  1.40E-03  0.60912
    316.   31.646  4.38E-06  4.38E-05  6.05E-06  6.05E-05  0.00E+00  0.00E+00  1.04E-05  1.04E-04  1.42E-03  0.58445
    318.   31.447  1.96E-06  1.98E-05  8.50E-06  8.59E-05  0.00E+00  0.00E+00  1.05E-05  1.06E-04  1.44E-03  0.81546
    320.   31.250  2.14E-06  2.19E-05  8.39E-06  8.59E-05  0.00E+00  0.00E+00  1.05E-05  1.08E-04  1.46E-03  0.80050
    322.   31.056  5.24E-06  5.43E-05  5.42E-06  5.62E-05  0.00E+00  0.00E+00  1.07E-05  1.11E-04  1.48E-03  0.51464
    324.   30.864  7.73E-06  8.12E-05  3.05E-06  3.20E-05  0.00E+00  0.00E+00  1.08E-05  1.13E-04  1.50E-03  0.28654
    326.   30.675  7.15E-06  7.60E-05  3.68E-06  3.91E-05  0.00E+00  0.00E+00  1.08E-05  1.15E-04  1.52E-03  0.34446
    328.   30.488  8.00E-06  8.61E-05  2.91E-06  3.13E-05  0.00E+00  0.00E+00  1.09E-05  1.17E-04  1.55E-03  0.27041
    330.   30.303  4.22E-06  4.60E-05  6.68E-06  7.28E-05  0.00E+00  0.00E+00  1.09E-05  1.19E-04  1.57E-03  0.61678
    332.   30.120  2.08E-06  2.29E-05  8.85E-06  9.75E-05  0.00E+00  0.00E+00  1.09E-05  1.20E-04  1.59E-03  0.81284
    334.   29.940  4.70E-06  5.24E-05  6.35E-06  7.09E-05  0.00E+00  0.00E+00  1.10E-05  1.23E-04  1.61E-03  0.58072
    336.   29.762  5.51E-06  6.22E-05  5.62E-06  6.35E-05  0.00E+00  0.00E+00  1.11E-05  1.26E-04  1.63E-03  0.50956
    338.   29.586  2.43E-06  2.78E-05  8.70E-06  9.94E-05  0.00E+00  0.00E+00  1.11E-05  1.27E-04  1.66E-03  0.78484
    340.   29.412  3.71E-06  4.29E-05  7.51E-06  8.68E-05  0.00E+00  0.00E+00  1.12E-05  1.30E-04  1.68E-03  0.67438
    342.   29.240  4.62E-06  5.40E-05  6.68E-06  7.82E-05  0.00E+00  0.00E+00  1.13E-05  1.32E-04  1.70E-03  0.59594
    344.   29.070  3.18E-06  3.77E-05  8.15E-06  9.65E-05  0.00E+00  0.00E+00  1.13E-05  1.34E-04  1.72E-03  0.72300
    346.   28.902  2.07E-06  2.48E-05  9.31E-06  1.11E-04  0.00E+00  0.00E+00  1.14E-05  1.36E-04  1.75E-03  0.82100
    348.   28.736  4.24E-06  5.14E-05  7.24E-06  8.77E-05  0.00E+00  0.00E+00  1.15E-05  1.39E-04  1.77E-03  0.63577
    350.   28.571  8.42E-06  1.03E-04  3.20E-06  3.93E-05  0.00E+00  0.00E+00  1.16E-05  1.42E-04  1.79E-03  0.28013
    352.   28.409  8.91E-06  1.10E-04  2.79E-06  3.45E-05  0.00E+00  0.00E+00  1.17E-05  1.45E-04  1.82E-03  0.24183
    354.   28.249  8.36E-06  1.05E-04  3.39E-06  4.25E-05  0.00E+00  0.00E+00  1.17E-05  1.47E-04  1.84E-03  0.29279
    356.   28.090  7.41E-06  9.40E-05  4.37E-06  5.54E-05  0.00E+00  0.00E+00  1.18E-05  1.49E-04  1.86E-03  0.37563
    358.   27.933  5.96E-06  7.63E-05  5.86E-06  7.51E-05  0.00E+00  0.00E+00  1.18E-05  1.51E-04  1.89E-03  0.50075
    360.   27.778  2.36E-06  3.06E-05  9.44E-06  1.22E-04  0.00E+00  0.00E+00  1.18E-05  1.53E-04  1.91E-03  0.80264
    362.   27.624  1.01E-06  1.32E-05  1.08E-05  1.42E-04  0.00E+00  0.00E+00  1.18E-05  1.55E-04  1.94E-03  0.91642
    364.   27.473  8.46E-07  1.12E-05  1.10E-05  1.46E-04  0.00E+00  0.00E+00  1.19E-05  1.58E-04  1.96E-03  0.93018
    366.   27.322  7.23E-07  9.69E-06  1.12E-05  1.50E-04  0.00E+00  0.00E+00  1.19E-05  1.60E-04  1.98E-03  0.94062
    368.   27.174  2.27E-06  3.08E-05  9.76E-06  1.32E-04  0.00E+00  0.00E+00  1.20E-05  1.63E-04  2.01E-03  0.81474
    370.   27.027  3.92E-06  5.37E-05  8.20E-06  1.12E-04  0.00E+00  0.00E+00  1.21E-05  1.66E-04  2.03E-03  0.68093
    372.   26.882  3.02E-06  4.18E-05  9.14E-06  1.26E-04  0.00E+00  0.00E+00  1.22E-05  1.68E-04  2.06E-03  0.75545
    374.   26.738  7.08E-06  9.90E-05  5.22E-06  7.30E-05  0.00E+00  0.00E+00  1.23E-05  1.72E-04  2.08E-03  0.43018
    376.   26.596  7.60E-06  1.07E-04  4.77E-06  6.74E-05  0.00E+00  0.00E+00  1.24E-05  1.75E-04  2.10E-03  0.38968
    378.   26.455  2.80E-06  3.99E-05  9.53E-06  1.36E-04  0.00E+00  0.00E+00  1.23E-05  1.76E-04  2.13E-03  0.77622
    380.   26.316  9.70E-07  1.40E-05  1.14E-05  1.64E-04  0.00E+00  0.00E+00  1.23E-05  1.78E-04  2.15E-03  0.92280
    382.   26.178  1.47E-06  2.15E-05  1.09E-05  1.60E-04  0.00E+00  0.00E+00  1.24E-05  1.81E-04  2.18E-03  0.88364
    384.   26.042  4.39E-06  6.48E-05  8.12E-06  1.20E-04  0.00E+00  0.00E+00  1.25E-05  1.85E-04  2.20E-03  0.65398
    386.   25.907  3.95E-06  5.88E-05  8.61E-06  1.28E-04  0.00E+00  0.00E+00  1.26E-05  1.87E-04  2.23E-03  0.68957
    388.   25.773  1.06E-06  1.59E-05  1.15E-05  1.73E-04  0.00E+00  0.00E+00  1.26E-05  1.89E-04  2.25E-03  0.91702
    390.   25.641  5.82E-07  8.85E-06  1.20E-05  1.83E-04  0.00E+00  0.00E+00  1.26E-05  1.92E-04  2.28E-03  0.95467
    392.   25.510  1.50E-06  2.31E-05  1.12E-05  1.71E-04  0.00E+00  0.00E+00  1.27E-05  1.95E-04  2.30E-03  0.88352
    394.   25.381  4.43E-06  6.88E-05  8.34E-06  1.29E-04  0.00E+00  0.00E+00  1.28E-05  1.98E-04  2.33E-03  0.65772
    396.   25.253  7.16E-06  1.12E-04  5.72E-06  8.97E-05  0.00E+00  0.00E+00  1.29E-05  2.02E-04  2.36E-03  0.44940
    398.   25.126  9.02E-06  1.43E-04  3.94E-06  6.25E-05  0.00E+00  0.00E+00  1.30E-05  2.05E-04  2.38E-03  0.30861
    400.   25.000  6.10E-06  9.76E-05  6.85E-06  1.10E-04  0.00E+00  0.00E+00  1.29E-05  2.07E-04  2.41E-03  0.53355
  iv          405
1                                             RADIANCE(WATTS/CM2-STER-XXX)
0  FREQ   WAVLEN    PATH THERMAL      SURFACE EMISSION    SURFACE REFLECTED     TOTAL RADIANCE   INTEGRAL    TOTAL
  (CM-1) (MICRN)    (CM-1)   (MICRN)    (CM-1)   (MICRN)    (CM-1)   (MICRN)    (CM-1)   (MICRN)    (CM-1)   TRANS

    402.   24.876  1.57E-06  2.54E-05  1.13E-05  1.83E-04  0.00E+00  0.00E+00  1.29E-05  2.09E-04  2.43E-03  0.87998
    404.   24.752  5.21E-07  8.50E-06  1.24E-05  2.03E-04  0.00E+00  0.00E+00  1.29E-05  2.11E-04  2.46E-03  0.96049
    406.   24.631  4.50E-07  7.41E-06  1.25E-05  2.07E-04  0.00E+00  0.00E+00  1.30E-05  2.14E-04  2.49E-03  0.96599
    408.   24.510  3.40E-07  5.66E-06  1.27E-05  2.11E-04  0.00E+00  0.00E+00  1.30E-05  2.17E-04  2.51E-03  0.97440
    410.   24.390  3.34E-07  5.62E-06  1.27E-05  2.14E-04  0.00E+00  0.00E+00  1.31E-05  2.20E-04  2.54E-03  0.97492
    412.   24.272  3.49E-07  5.92E-06  1.28E-05  2.17E-04  0.00E+00  0.00E+00  1.31E-05  2.23E-04  2.56E-03  0.97393
    414.   24.155  5.01E-07  8.59E-06  1.27E-05  2.17E-04  0.00E+00  0.00E+00  1.32E-05  2.26E-04  2.59E-03  0.96267
    416.   24.038  2.16E-06  3.73E-05  1.11E-05  1.92E-04  0.00E+00  0.00E+00  1.32E-05  2.29E-04  2.62E-03  0.84017
    418.   23.923  7.29E-06  1.27E-04  6.09E-06  1.06E-04  0.00E+00  0.00E+00  1.34E-05  2.34E-04  2.64E-03  0.46071
    420.   23.810  6.76E-06  1.19E-04  6.65E-06  1.17E-04  0.00E+00  0.00E+00  1.34E-05  2.37E-04  2.67E-03  0.50043
    422.   23.697  3.54E-06  6.30E-05  9.85E-06  1.75E-04  0.00E+00  0.00E+00  1.34E-05  2.39E-04  2.70E-03  0.73955
    424.   23.585  3.28E-06  5.89E-05  1.02E-05  1.83E-04  0.00E+00  0.00E+00  1.34E-05  2.41E-04  2.72E-03  0.75972
    426.   23.474  1.77E-06  3.21E-05  1.17E-05  2.12E-04  0.00E+00  0.00E+00  1.34E-05  2.44E-04  2.75E-03  0.87044
    428.   23.364  5.10E-07  9.35E-06  1.29E-05  2.37E-04  0.00E+00  0.00E+00  1.35E-05  2.47E-04  2.78E-03  0.96279
    430.   23.256  8.85E-07  1.64E-05  1.26E-05  2.33E-04  0.00E+00  0.00E+00  1.35E-05  2.50E-04  2.80E-03  0.93573
    432.   23.148  9.17E-07  1.71E-05  1.26E-05  2.36E-04  0.00E+00  0.00E+00  1.35E-05  2.53E-04  2.83E-03  0.93353
    434.   23.041  1.19E-06  2.24E-05  1.24E-05  2.34E-04  0.00E+00  0.00E+00  1.36E-05  2.56E-04  2.86E-03  0.91419
    436.   22.936  2.08E-06  3.96E-05  1.16E-05  2.20E-04  0.00E+00  0.00E+00  1.36E-05  2.59E-04  2.89E-03  0.84978
    438.   22.831  8.05E-07  1.54E-05  1.29E-05  2.47E-04  0.00E+00  0.00E+00  1.37E-05  2.62E-04  2.91E-03  0.94207
    440.   22.727  9.65E-07  1.87E-05  1.27E-05  2.47E-04  0.00E+00  0.00E+00  1.37E-05  2.65E-04  2.94E-03  0.93098
    442.   22.624  2.88E-06  5.63E-05  1.09E-05  2.13E-04  0.00E+00  0.00E+00  1.38E-05  2.69E-04  2.97E-03  0.79426
    444.   22.523  2.71E-06  5.35E-05  1.11E-05  2.19E-04  0.00E+00  0.00E+00  1.38E-05  2.72E-04  3.00E-03  0.80655
    446.   22.422  2.01E-06  4.00E-05  1.18E-05  2.35E-04  0.00E+00  0.00E+00  1.38E-05  2.75E-04  3.02E-03  0.85700
    448.   22.321  1.17E-06  2.36E-05  1.27E-05  2.54E-04  0.00E+00  0.00E+00  1.38E-05  2.78E-04  3.05E-03  0.91663
    450.   22.222  4.38E-07  8.86E-06  1.34E-05  2.72E-04  0.00E+00  0.00E+00  1.39E-05  2.81E-04  3.08E-03  0.96908
    452.   22.124  1.58E-06  3.22E-05  1.23E-05  2.52E-04  0.00E+00  0.00E+00  1.39E-05  2.84E-04  3.11E-03  0.88876
    454.   22.026  1.44E-06  2.98E-05  1.25E-05  2.58E-04  0.00E+00  0.00E+00  1.40E-05  2.88E-04  3.13E-03  0.89833
    456.   21.930  2.75E-06  5.72E-05  1.13E-05  2.34E-04  0.00E+00  0.00E+00  1.40E-05  2.91E-04  3.16E-03  0.80713
    458.   21.834  4.93E-06  1.03E-04  9.16E-06  1.92E-04  0.00E+00  0.00E+00  1.41E-05  2.96E-04  3.19E-03  0.65464
    460.   21.739  2.20E-06  4.65E-05  1.19E-05  2.51E-04  0.00E+00  0.00E+00  1.41E-05  2.98E-04  3.22E-03  0.84639
    462.   21.645  9.20E-07  1.96E-05  1.32E-05  2.81E-04  0.00E+00  0.00E+00  1.41E-05  3.00E-04  3.25E-03  0.93582
    464.   21.552  2.38E-07  5.13E-06  1.39E-05  2.98E-04  0.00E+00  0.00E+00  1.41E-05  3.03E-04  3.28E-03  0.98342
    466.   21.459  6.20E-07  1.35E-05  1.35E-05  2.93E-04  0.00E+00  0.00E+00  1.41E-05  3.07E-04  3.30E-03  0.95698
    468.   21.368  1.57E-06  3.45E-05  1.26E-05  2.76E-04  0.00E+00  0.00E+00  1.42E-05  3.11E-04  3.33E-03  0.89097
    470.   21.277  1.71E-06  3.77E-05  1.25E-05  2.76E-04  0.00E+00  0.00E+00  1.42E-05  3.14E-04  3.36E-03  0.88213
    472.   21.186  3.74E-06  8.34E-05  1.05E-05  2.35E-04  0.00E+00  0.00E+00  1.43E-05  3.18E-04  3.39E-03  0.74185
    474.   21.097  2.49E-06  5.60E-05  1.18E-05  2.65E-04  0.00E+00  0.00E+00  1.43E-05  3.21E-04  3.42E-03  0.82816
    476.   21.008  7.57E-07  1.72E-05  1.35E-05  3.06E-04  0.00E+00  0.00E+00  1.43E-05  3.23E-04  3.45E-03  0.94797
    478.   20.921  3.42E-07  7.81E-06  1.40E-05  3.19E-04  0.00E+00  0.00E+00  1.43E-05  3.27E-04  3.47E-03  0.97654
    480.   20.833  3.02E-07  6.95E-06  1.40E-05  3.23E-04  0.00E+00  0.00E+00  1.43E-05  3.30E-04  3.50E-03  0.97935
    482.   20.747  9.01E-07  2.09E-05  1.35E-05  3.13E-04  0.00E+00  0.00E+00  1.44E-05  3.34E-04  3.53E-03  0.93849
    484.   20.661  1.85E-06  4.34E-05  1.26E-05  2.94E-04  0.00E+00  0.00E+00  1.44E-05  3.37E-04  3.56E-03  0.87372
    486.   20.576  1.18E-06  2.78E-05  1.32E-05  3.13E-04  0.00E+00  0.00E+00  1.44E-05  3.40E-04  3.59E-03  0.91981
    488.   20.492  3.54E-07  8.43E-06  1.41E-05  3.35E-04  0.00E+00  0.00E+00  1.44E-05  3.43E-04  3.62E-03  0.97592
    490.   20.408  6.08E-07  1.46E-05  1.38E-05  3.32E-04  0.00E+00  0.00E+00  1.45E-05  3.47E-04  3.65E-03  0.95875
    492.   20.325  1.48E-06  3.58E-05  1.30E-05  3.15E-04  0.00E+00  0.00E+00  1.45E-05  3.51E-04  3.68E-03  0.89972
    494.   20.243  7.38E-07  1.80E-05  1.38E-05  3.36E-04  0.00E+00  0.00E+00  1.45E-05  3.54E-04  3.71E-03  0.95005
    496.   20.161  1.69E-07  4.17E-06  1.43E-05  3.53E-04  0.00E+00  0.00E+00  1.45E-05  3.57E-04  3.73E-03  0.98855
    498.   20.080  1.27E-07  3.15E-06  1.44E-05  3.57E-04  0.00E+00  0.00E+00  1.45E-05  3.60E-04  3.76E-03  0.99144
    500.   20.000  8.38E-07  2.10E-05  1.37E-05  3.43E-04  0.00E+00  0.00E+00  1.46E-05  3.64E-04  3.79E-03  0.94359
  iv          505
1                                             RADIANCE(WATTS/CM2-STER-XXX)
0  FREQ   WAVLEN    PATH THERMAL      SURFACE EMISSION    SURFACE REFLECTED     TOTAL RADIANCE   INTEGRAL    TOTAL
  (CM-1) (MICRN)    (CM-1)   (MICRN)    (CM-1)   (MICRN)    (CM-1)   (MICRN)    (CM-1)   (MICRN)    (CM-1)   TRANS

    502.   19.920  2.34E-06  5.89E-05  1.23E-05  3.09E-04  0.00E+00  0.00E+00  1.46E-05  3.68E-04  3.82E-03  0.84279
    504.   19.841  1.23E-06  3.12E-05  1.34E-05  3.40E-04  0.00E+00  0.00E+00  1.46E-05  3.71E-04  3.85E-03  0.91736
    506.   19.763  1.26E-06  3.23E-05  1.34E-05  3.42E-04  0.00E+00  0.00E+00  1.46E-05  3.75E-04  3.88E-03  0.91530
    508.   19.685  1.16E-06  2.99E-05  1.35E-05  3.48E-04  0.00E+00  0.00E+00  1.47E-05  3.78E-04  3.91E-03  0.92223
    510.   19.608  5.07E-07  1.32E-05  1.42E-05  3.68E-04  0.00E+00  0.00E+00  1.47E-05  3.81E-04  3.94E-03  0.96606
    512.   19.531  4.04E-07  1.06E-05  1.43E-05  3.74E-04  0.00E+00  0.00E+00  1.47E-05  3.85E-04  3.97E-03  0.97300
    514.   19.455  3.96E-07  1.05E-05  1.43E-05  3.78E-04  0.00E+00  0.00E+00  1.47E-05  3.88E-04  4.00E-03  0.97356
    516.   19.380  1.67E-06  4.44E-05  1.31E-05  3.48E-04  0.00E+00  0.00E+00  1.47E-05  3.92E-04  4.03E-03  0.88899
    518.   19.305  2.58E-06  6.91E-05  1.22E-05  3.27E-04  0.00E+00  0.00E+00  1.48E-05  3.96E-04  4.06E-03  0.82848
    520.   19.231  1.83E-06  4.96E-05  1.29E-05  3.50E-04  0.00E+00  0.00E+00  1.48E-05  3.99E-04  4.09E-03  0.87794
    522.   19.157  5.75E-07  1.57E-05  1.42E-05  3.87E-04  0.00E+00  0.00E+00  1.48E-05  4.02E-04  4.12E-03  0.96174
    524.   19.084  8.13E-07  2.23E-05  1.40E-05  3.83E-04  0.00E+00  0.00E+00  1.48E-05  4.06E-04  4.15E-03  0.94605
    526.   19.011  1.91E-06  5.29E-05  1.29E-05  3.57E-04  0.00E+00  0.00E+00  1.48E-05  4.10E-04  4.18E-03  0.87320
    528.   18.939  6.85E-07  1.91E-05  1.41E-05  3.94E-04  0.00E+00  0.00E+00  1.48E-05  4.13E-04  4.20E-03  0.95457
    530.   18.868  9.37E-08  2.63E-06  1.47E-05  4.13E-04  0.00E+00  0.00E+00  1.48E-05  4.16E-04  4.23E-03  0.99380
    532.   18.797  1.02E-07  2.88E-06  1.47E-05  4.17E-04  0.00E+00  0.00E+00  1.48E-05  4.19E-04  4.26E-03  0.99327
    534.   18.727  2.53E-07  7.20E-06  1.46E-05  4.16E-04  0.00E+00  0.00E+00  1.48E-05  4.23E-04  4.29E-03  0.98332
    536.   18.657  4.65E-07  1.34E-05  1.44E-05  4.13E-04  0.00E+00  0.00E+00  1.49E-05  4.27E-04  4.32E-03  0.96930
    538.   18.587  2.38E-07  6.87E-06  1.46E-05  4.23E-04  0.00E+00  0.00E+00  1.49E-05  4.30E-04  4.35E-03  0.98433
    540.   18.519  1.93E-07  5.64E-06  1.47E-05  4.28E-04  0.00E+00  0.00E+00  1.49E-05  4.34E-04  4.38E-03  0.98725
    542.   18.450  1.81E-07  5.32E-06  1.47E-05  4.32E-04  0.00E+00  0.00E+00  1.49E-05  4.37E-04  4.41E-03  0.98807
    544.   18.382  5.48E-07  1.62E-05  1.44E-05  4.25E-04  0.00E+00  0.00E+00  1.49E-05  4.41E-04  4.44E-03  0.96396
    546.   18.315  1.07E-06  3.19E-05  1.38E-05  4.13E-04  0.00E+00  0.00E+00  1.49E-05  4.45E-04  4.47E-03  0.92956
    548.   18.248  8.53E-07  2.56E-05  1.41E-05  4.23E-04  0.00E+00  0.00E+00  1.49E-05  4.48E-04  4.50E-03  0.94393
    550.   18.182  7.61E-07  2.30E-05  1.42E-05  4.29E-04  0.00E+00  0.00E+00  1.49E-05  4.52E-04  4.53E-03  0.95000
    552.   18.116  2.99E-07  9.11E-06  1.46E-05  4.46E-04  0.00E+00  0.00E+00  1.49E-05  4.55E-04  4.56E-03  0.98035
    554.   18.051  2.40E-07  7.37E-06  1.47E-05  4.51E-04  0.00E+00  0.00E+00  1.49E-05  4.58E-04  4.59E-03  0.98424
    556.   17.986  2.47E-07  7.62E-06  1.47E-05  4.54E-04  0.00E+00  0.00E+00  1.49E-05  4.62E-04  4.62E-03  0.98382
    558.   17.921  1.00E-07  3.12E-06  1.48E-05  4.62E-04  0.00E+00  0.00E+00  1.49E-05  4.65E-04  4.65E-03  0.99344
    560.   17.857  7.20E-08  2.26E-06  1.49E-05  4.67E-04  0.00E+00  0.00E+00  1.50E-05  4.69E-04  4.68E-03  0.99528
    562.   17.794  1.66E-07  5.24E-06  1.48E-05  4.67E-04  0.00E+00  0.00E+00  1.50E-05  4.73E-04  4.71E-03  0.98913
    564.   17.730  1.82E-07  5.80E-06  1.48E-05  4.70E-04  0.00E+00  0.00E+00  1.50E-05  4.76E-04  4.74E-03  0.98806
    566.   17.668  4.80E-07  1.54E-05  1.45E-05  4.64E-04  0.00E+00  0.00E+00  1.50E-05  4.80E-04  4.77E-03  0.96855
    568.   17.606  9.42E-07  3.04E-05  1.40E-05  4.53E-04  0.00E+00  0.00E+00  1.50E-05  4.84E-04  4.80E-03  0.93834
    570.   17.544  6.97E-07  2.27E-05  1.43E-05  4.64E-04  0.00E+00  0.00E+00  1.50E-05  4.87E-04  4.83E-03  0.95437
    572.   17.483  2.28E-07  7.45E-06  1.48E-05  4.83E-04  0.00E+00  0.00E+00  1.50E-05  4.90E-04  4.86E-03  0.98510
    574.   17.422  3.99E-07  1.32E-05  1.46E-05  4.81E-04  0.00E+00  0.00E+00  1.50E-05  4.94E-04  4.89E-03  0.97388
    576.   17.361  1.06E-06  3.53E-05  1.39E-05  4.63E-04  0.00E+00  0.00E+00  1.50E-05  4.98E-04  4.92E-03  0.93040
    578.   17.301  4.44E-07  1.48E-05  1.46E-05  4.86E-04  0.00E+00  0.00E+00  1.50E-05  5.01E-04  4.95E-03  0.97096
    580.   17.241  7.09E-07  2.38E-05  1.43E-05  4.81E-04  0.00E+00  0.00E+00  1.50E-05  5.05E-04  4.98E-03  0.95367
    582.   17.182  7.06E-07  2.39E-05  1.43E-05  4.84E-04  0.00E+00  0.00E+00  1.50E-05  5.08E-04  5.01E-03  0.95385
    584.   17.123  3.50E-07  1.19E-05  1.47E-05  5.00E-04  0.00E+00  0.00E+00  1.50E-05  5.12E-04  5.04E-03  0.97715
    586.   17.065  3.26E-07  1.12E-05  1.47E-05  5.04E-04  0.00E+00  0.00E+00  1.50E-05  5.15E-04  5.07E-03  0.97867
    588.   17.007  7.12E-08  2.46E-06  1.49E-05  5.16E-04  0.00E+00  0.00E+00  1.50E-05  5.18E-04  5.10E-03  0.99535
    590.   16.949  5.16E-07  1.80E-05  1.45E-05  5.04E-04  0.00E+00  0.00E+00  1.50E-05  5.22E-04  5.13E-03  0.96626
    592.   16.892  1.33E-06  4.64E-05  1.37E-05  4.80E-04  0.00E+00  0.00E+00  1.50E-05  5.26E-04  5.16E-03  0.91339
    594.   16.835  6.72E-07  2.37E-05  1.43E-05  5.06E-04  0.00E+00  0.00E+00  1.50E-05  5.29E-04  5.19E-03  0.95607
    596.   16.779  2.46E-07  8.73E-06  1.47E-05  5.24E-04  0.00E+00  0.00E+00  1.50E-05  5.33E-04  5.22E-03  0.98394
    598.   16.722  2.53E-07  9.06E-06  1.47E-05  5.27E-04  0.00E+00  0.00E+00  1.50E-05  5.36E-04  5.25E-03  0.98343
    600.   16.667  5.88E-07  2.12E-05  1.44E-05  5.19E-04  0.00E+00  0.00E+00  1.50E-05  5.40E-04  5.28E-03  0.96155
  iv          605
1                                             RADIANCE(WATTS/CM2-STER-XXX)
0  FREQ   WAVLEN    PATH THERMAL      SURFACE EMISSION    SURFACE REFLECTED     TOTAL RADIANCE   INTEGRAL    TOTAL
  (CM-1) (MICRN)    (CM-1)   (MICRN)    (CM-1)   (MICRN)    (CM-1)   (MICRN)    (CM-1)   (MICRN)    (CM-1)   TRANS

    602.   16.611  2.88E-07  1.05E-05  1.47E-05  5.33E-04  0.00E+00  0.00E+00  1.50E-05  5.43E-04  5.31E-03  0.98114
    604.   16.556  1.76E-07  6.42E-06  1.48E-05  5.40E-04  0.00E+00  0.00E+00  1.50E-05  5.47E-04  5.34E-03  0.98849
    606.   16.502  1.09E-07  4.00E-06  1.49E-05  5.46E-04  0.00E+00  0.00E+00  1.50E-05  5.50E-04  5.37E-03  0.99288
    608.   16.447  7.40E-08  2.74E-06  1.49E-05  5.51E-04  0.00E+00  0.00E+00  1.50E-05  5.54E-04  5.40E-03  0.99515
    610.   16.393  7.04E-08  2.62E-06  1.49E-05  5.54E-04  0.00E+00  0.00E+00  1.50E-05  5.57E-04  5.43E-03  0.99539
    612.   16.340  1.10E-07  4.11E-06  1.49E-05  5.56E-04  0.00E+00  0.00E+00  1.50E-05  5.61E-04  5.46E-03  0.99282
    614.   16.287  2.66E-07  1.00E-05  1.47E-05  5.54E-04  0.00E+00  0.00E+00  1.50E-05  5.64E-04  5.49E-03  0.98258
    616.   16.234  6.77E-07  2.57E-05  1.43E-05  5.42E-04  0.00E+00  0.00E+00  1.50E-05  5.68E-04  5.52E-03  0.95562
    618.   16.181  5.39E-07  2.06E-05  1.44E-05  5.51E-04  0.00E+00  0.00E+00  1.50E-05  5.71E-04  5.55E-03  0.96469
    620.   16.129  2.52E-07  9.68E-06  1.47E-05  5.65E-04  0.00E+00  0.00E+00  1.49E-05  5.74E-04  5.58E-03  0.98348
    622.   16.077  1.73E-07  6.71E-06  1.48E-05  5.71E-04  0.00E+00  0.00E+00  1.49E-05  5.78E-04  5.61E-03  0.98862
    624.   16.026  4.28E-07  1.67E-05  1.45E-05  5.65E-04  0.00E+00  0.00E+00  1.49E-05  5.82E-04  5.64E-03  0.97189
    626.   15.974  5.01E-07  1.96E-05  1.44E-05  5.65E-04  0.00E+00  0.00E+00  1.49E-05  5.85E-04  5.67E-03  0.96710
    628.   15.924  1.55E-07  6.09E-06  1.48E-05  5.82E-04  0.00E+00  0.00E+00  1.49E-05  5.88E-04  5.70E-03  0.98984
    630.   15.873  1.47E-07  5.85E-06  1.48E-05  5.86E-04  0.00E+00  0.00E+00  1.49E-05  5.92E-04  5.73E-03  0.99031
    632.   15.823  3.34E-07  1.33E-05  1.46E-05  5.82E-04  0.00E+00  0.00E+00  1.49E-05  5.95E-04  5.76E-03  0.97801
    634.   15.773  7.10E-07  2.85E-05  1.42E-05  5.70E-04  0.00E+00  0.00E+00  1.49E-05  5.99E-04  5.79E-03  0.95324
    636.   15.723  6.92E-07  2.80E-05  1.42E-05  5.74E-04  0.00E+00  0.00E+00  1.49E-05  6.02E-04  5.82E-03  0.95440
    638.   15.674  5.87E-07  2.39E-05  1.43E-05  5.82E-04  0.00E+00  0.00E+00  1.49E-05  6.06E-04  5.85E-03  0.96132
    640.   15.625  7.29E-07  2.99E-05  1.41E-05  5.79E-04  0.00E+00  0.00E+00  1.49E-05  6.09E-04  5.88E-03  0.95189
    642.   15.576  7.31E-07  3.01E-05  1.41E-05  5.82E-04  0.00E+00  0.00E+00  1.49E-05  6.12E-04  5.91E-03  0.95175
    644.   15.528  8.84E-07  3.67E-05  1.40E-05  5.79E-04  0.00E+00  0.00E+00  1.49E-05  6.16E-04  5.94E-03  0.94160
    646.   15.480  9.56E-07  3.99E-05  1.39E-05  5.79E-04  0.00E+00  0.00E+00  1.48E-05  6.19E-04  5.97E-03  0.93677
    648.   15.432  1.16E-06  4.89E-05  1.37E-05  5.74E-04  0.00E+00  0.00E+00  1.48E-05  6.23E-04  6.00E-03  0.92300
    650.   15.385  1.29E-06  5.44E-05  1.35E-05  5.72E-04  0.00E+00  0.00E+00  1.48E-05  6.26E-04  6.03E-03  0.91475
    652.   15.337  1.28E-06  5.44E-05  1.35E-05  5.75E-04  0.00E+00  0.00E+00  1.48E-05  6.30E-04  6.06E-03  0.91514
    654.   15.291  1.11E-06  4.73E-05  1.37E-05  5.86E-04  0.00E+00  0.00E+00  1.48E-05  6.33E-04  6.09E-03  0.92669
    656.   15.244  1.05E-06  4.50E-05  1.37E-05  5.91E-04  0.00E+00  0.00E+00  1.48E-05  6.36E-04  6.12E-03  0.93058
    658.   15.198  1.32E-06  5.73E-05  1.35E-05  5.82E-04  0.00E+00  0.00E+00  1.48E-05  6.40E-04  6.15E-03  0.91204
    660.   15.152  1.21E-06  5.27E-05  1.35E-05  5.90E-04  0.00E+00  0.00E+00  1.48E-05  6.43E-04  6.17E-03  0.91957
    662.   15.106  9.11E-07  3.99E-05  1.38E-05  6.06E-04  0.00E+00  0.00E+00  1.47E-05  6.46E-04  6.20E-03  0.93934
    664.   15.060  7.27E-07  3.21E-05  1.40E-05  6.17E-04  0.00E+00  0.00E+00  1.47E-05  6.49E-04  6.23E-03  0.95154
    666.   15.015  3.70E-06  1.64E-04  1.11E-05  4.91E-04  0.00E+00  0.00E+00  1.48E-05  6.55E-04  6.26E-03  0.75274
    668.   14.970  7.98E-06  3.56E-04  6.85E-06  3.06E-04  0.00E+00  0.00E+00  1.48E-05  6.62E-04  6.29E-03  0.46696
    670.   14.925  4.03E-06  1.81E-04  1.07E-05  4.81E-04  0.00E+00  0.00E+00  1.47E-05  6.62E-04  6.32E-03  0.73052
    672.   14.881  1.31E-06  5.93E-05  1.34E-05  6.03E-04  0.00E+00  0.00E+00  1.47E-05  6.63E-04  6.35E-03  0.91214
    674.   14.837  1.26E-06  5.73E-05  1.34E-05  6.08E-04  0.00E+00  0.00E+00  1.47E-05  6.66E-04  6.38E-03  0.91548
    676.   14.793  1.25E-06  5.72E-05  1.34E-05  6.12E-04  0.00E+00  0.00E+00  1.46E-05  6.69E-04  6.41E-03  0.91607
    678.   14.749  1.53E-06  7.06E-05  1.31E-05  6.02E-04  0.00E+00  0.00E+00  1.46E-05  6.72E-04  6.44E-03  0.89696
    680.   14.706  1.58E-06  7.28E-05  1.30E-05  6.03E-04  0.00E+00  0.00E+00  1.46E-05  6.76E-04  6.47E-03  0.89413
    682.   14.663  1.54E-06  7.16E-05  1.31E-05  6.07E-04  0.00E+00  0.00E+00  1.46E-05  6.79E-04  6.50E-03  0.89637
    684.   14.620  1.29E-06  6.02E-05  1.33E-05  6.22E-04  0.00E+00  0.00E+00  1.46E-05  6.82E-04  6.53E-03  0.91330
    686.   14.577  1.37E-06  6.46E-05  1.32E-05  6.20E-04  0.00E+00  0.00E+00  1.46E-05  6.85E-04  6.56E-03  0.90742
    688.   14.535  1.53E-06  7.22E-05  1.30E-05  6.16E-04  0.00E+00  0.00E+00  1.45E-05  6.88E-04  6.59E-03  0.89693
    690.   14.493  1.33E-06  6.34E-05  1.32E-05  6.28E-04  0.00E+00  0.00E+00  1.45E-05  6.91E-04  6.61E-03  0.91000
    692.   14.451  8.57E-07  4.10E-05  1.36E-05  6.53E-04  0.00E+00  0.00E+00  1.45E-05  6.94E-04  6.64E-03  0.94199
    694.   14.409  8.62E-07  4.15E-05  1.36E-05  6.56E-04  0.00E+00  0.00E+00  1.45E-05  6.97E-04  6.67E-03  0.94159
    696.   14.368  7.66E-07  3.71E-05  1.37E-05  6.63E-04  0.00E+00  0.00E+00  1.45E-05  7.00E-04  6.70E-03  0.94798
    698.   14.327  6.48E-07  3.16E-05  1.38E-05  6.72E-04  0.00E+00  0.00E+00  1.44E-05  7.03E-04  6.73E-03  0.95598
    700.   14.286  3.72E-07  1.82E-05  1.40E-05  6.88E-04  0.00E+00  0.00E+00  1.44E-05  7.06E-04  6.76E-03  0.97468
  iv          705
1                                             RADIANCE(WATTS/CM2-STER-XXX)
0  FREQ   WAVLEN    PATH THERMAL      SURFACE EMISSION    SURFACE REFLECTED     TOTAL RADIANCE   INTEGRAL    TOTAL
  (CM-1) (MICRN)    (CM-1)   (MICRN)    (CM-1)   (MICRN)    (CM-1)   (MICRN)    (CM-1)   (MICRN)    (CM-1)   TRANS

    702.   14.245  3.20E-07  1.58E-05  1.41E-05  6.93E-04  0.00E+00  0.00E+00  1.44E-05  7.09E-04  6.79E-03  0.97820
    704.   14.205  3.93E-07  1.95E-05  1.40E-05  6.92E-04  0.00E+00  0.00E+00  1.44E-05  7.12E-04  6.82E-03  0.97316
    706.   14.164  3.45E-07  1.72E-05  1.40E-05  6.98E-04  0.00E+00  0.00E+00  1.43E-05  7.15E-04  6.85E-03  0.97643
    708.   14.124  1.88E-07  9.41E-06  1.41E-05  7.08E-04  0.00E+00  0.00E+00  1.43E-05  7.18E-04  6.87E-03  0.98715
    710.   14.085  1.01E-07  5.09E-06  1.42E-05  7.16E-04  0.00E+00  0.00E+00  1.43E-05  7.21E-04  6.90E-03  0.99308
    712.   14.045  1.13E-07  5.71E-06  1.42E-05  7.18E-04  0.00E+00  0.00E+00  1.43E-05  7.24E-04  6.93E-03  0.99227
    714.   14.006  1.16E-07  5.92E-06  1.41E-05  7.21E-04  0.00E+00  0.00E+00  1.43E-05  7.27E-04  6.96E-03  0.99201
    716.   13.966  6.44E-08  3.30E-06  1.42E-05  7.26E-04  0.00E+00  0.00E+00  1.42E-05  7.30E-04  6.99E-03  0.99556
    718.   13.928  1.30E-07  6.72E-06  1.41E-05  7.26E-04  0.00E+00  0.00E+00  1.42E-05  7.33E-04  7.02E-03  0.99101
    720.   13.889  3.37E-07  1.75E-05  1.39E-05  7.18E-04  0.00E+00  0.00E+00  1.42E-05  7.36E-04  7.04E-03  0.97670
    722.   13.850  1.92E-07  1.00E-05  1.40E-05  7.29E-04  0.00E+00  0.00E+00  1.42E-05  7.39E-04  7.07E-03  0.98670
    724.   13.812  3.02E-08  1.58E-06  1.41E-05  7.40E-04  0.00E+00  0.00E+00  1.41E-05  7.41E-04  7.10E-03  0.99791
    726.   13.774  3.03E-08  1.60E-06  1.41E-05  7.43E-04  0.00E+00  0.00E+00  1.41E-05  7.44E-04  7.13E-03  0.99790
    728.   13.736  5.61E-08  2.97E-06  1.40E-05  7.44E-04  0.00E+00  0.00E+00  1.41E-05  7.47E-04  7.16E-03  0.99610
    730.   13.699  8.78E-08  4.68E-06  1.40E-05  7.45E-04  0.00E+00  0.00E+00  1.41E-05  7.50E-04  7.19E-03  0.99388
    732.   13.661  6.84E-08  3.66E-06  1.40E-05  7.49E-04  0.00E+00  0.00E+00  1.40E-05  7.53E-04  7.21E-03  0.99523
    734.   13.624  4.41E-08  2.38E-06  1.40E-05  7.53E-04  0.00E+00  0.00E+00  1.40E-05  7.56E-04  7.24E-03  0.99692
    736.   13.587  4.35E-08  2.35E-06  1.40E-05  7.56E-04  0.00E+00  0.00E+00  1.40E-05  7.58E-04  7.27E-03  0.99696
    738.   13.550  4.33E-08  2.36E-06  1.39E-05  7.59E-04  0.00E+00  0.00E+00  1.40E-05  7.61E-04  7.30E-03  0.99696
    740.   13.514  9.35E-08  5.12E-06  1.39E-05  7.59E-04  0.00E+00  0.00E+00  1.40E-05  7.64E-04  7.33E-03  0.99343
    742.   13.477  1.14E-07  6.29E-06  1.38E-05  7.61E-04  0.00E+00  0.00E+00  1.39E-05  7.67E-04  7.35E-03  0.99196
    744.   13.441  1.11E-07  6.16E-06  1.38E-05  7.63E-04  0.00E+00  0.00E+00  1.39E-05  7.70E-04  7.38E-03  0.99215
    746.   13.405  8.91E-08  4.96E-06  1.38E-05  7.67E-04  0.00E+00  0.00E+00  1.39E-05  7.72E-04  7.41E-03  0.99371
    748.   13.369  4.96E-08  2.77E-06  1.38E-05  7.72E-04  0.00E+00  0.00E+00  1.39E-05  7.75E-04  7.44E-03  0.99649
    750.   13.333  3.77E-08  2.12E-06  1.38E-05  7.75E-04  0.00E+00  0.00E+00  1.38E-05  7.78E-04  7.46E-03  0.99733
    752.   13.298  4.25E-08  2.41E-06  1.38E-05  7.78E-04  0.00E+00  0.00E+00  1.38E-05  7.80E-04  7.49E-03  0.99698
    754.   13.263  5.86E-08  3.33E-06  1.37E-05  7.80E-04  0.00E+00  0.00E+00  1.38E-05  7.83E-04  7.52E-03  0.99583
    756.   13.228  4.73E-08  2.70E-06  1.37E-05  7.83E-04  0.00E+00  0.00E+00  1.37E-05  7.86E-04  7.55E-03  0.99663
    758.   13.193  1.80E-08  1.04E-06  1.37E-05  7.87E-04  0.00E+00  0.00E+00  1.37E-05  7.88E-04  7.57E-03  0.99871
    760.   13.158  1.55E-08  8.98E-07  1.37E-05  7.90E-04  0.00E+00  0.00E+00  1.37E-05  7.91E-04  7.60E-03  0.99889
    762.   13.123  1.42E-08  8.26E-07  1.37E-05  7.93E-04  0.00E+00  0.00E+00  1.37E-05  7.93E-04  7.63E-03  0.99898
    764.   13.089  1.28E-08  7.49E-07  1.36E-05  7.95E-04  0.00E+00  0.00E+00  1.36E-05  7.96E-04  7.66E-03  0.99908
    766.   13.055  1.41E-08  8.26E-07  1.36E-05  7.98E-04  0.00E+00  0.00E+00  1.36E-05  7.99E-04  7.68E-03  0.99899
    768.   13.021  2.00E-08  1.18E-06  1.36E-05  8.00E-04  0.00E+00  0.00E+00  1.36E-05  8.01E-04  7.71E-03  0.99856
    770.   12.987  2.36E-08  1.40E-06  1.35E-05  8.02E-04  0.00E+00  0.00E+00  1.36E-05  8.04E-04  7.74E-03  0.99829
    772.   12.953  1.45E-08  8.65E-07  1.35E-05  8.05E-04  0.00E+00  0.00E+00  1.35E-05  8.06E-04  7.77E-03  0.99895
    774.   12.920  1.65E-08  9.91E-07  1.35E-05  8.08E-04  0.00E+00  0.00E+00  1.35E-05  8.09E-04  7.79E-03  0.99880
    776.   12.887  4.14E-08  2.49E-06  1.34E-05  8.09E-04  0.00E+00  0.00E+00  1.35E-05  8.11E-04  7.82E-03  0.99699
    778.   12.853  3.73E-08  2.26E-06  1.34E-05  8.11E-04  0.00E+00  0.00E+00  1.34E-05  8.14E-04  7.85E-03  0.99728
    780.   12.821  1.67E-08  1.02E-06  1.34E-05  8.15E-04  0.00E+00  0.00E+00  1.34E-05  8.16E-04  7.87E-03  0.99878
    782.   12.788  2.14E-08  1.31E-06  1.34E-05  8.17E-04  0.00E+00  0.00E+00  1.34E-05  8.19E-04  7.90E-03  0.99843
    784.   12.755  4.31E-08  2.65E-06  1.33E-05  8.18E-04  0.00E+00  0.00E+00  1.34E-05  8.21E-04  7.93E-03  0.99684
    786.   12.723  2.23E-08  1.38E-06  1.33E-05  8.22E-04  0.00E+00  0.00E+00  1.33E-05  8.23E-04  7.95E-03  0.99836
    788.   12.690  1.02E-08  6.34E-07  1.33E-05  8.25E-04  0.00E+00  0.00E+00  1.33E-05  8.26E-04  7.98E-03  0.99925
    790.   12.658  1.07E-08  6.70E-07  1.33E-05  8.27E-04  0.00E+00  0.00E+00  1.33E-05  8.28E-04  8.01E-03  0.99921
    792.   12.626  1.76E-08  1.11E-06  1.32E-05  8.29E-04  0.00E+00  0.00E+00  1.32E-05  8.30E-04  8.03E-03  0.99869
    794.   12.594  4.27E-08  2.69E-06  1.32E-05  8.30E-04  0.00E+00  0.00E+00  1.32E-05  8.33E-04  8.06E-03  0.99683
    796.   12.563  6.45E-08  4.09E-06  1.31E-05  8.31E-04  0.00E+00  0.00E+00  1.32E-05  8.35E-04  8.09E-03  0.99520
    798.   12.531  7.64E-08  4.87E-06  1.31E-05  8.33E-04  0.00E+00  0.00E+00  1.31E-05  8.37E-04  8.11E-03  0.99430
    800.   12.500  5.65E-08  3.62E-06  1.31E-05  8.36E-04  0.00E+00  0.00E+00  1.31E-05  8.40E-04  8.14E-03  0.99578
  iv          805
1                                             RADIANCE(WATTS/CM2-STER-XXX)
0  FREQ   WAVLEN    PATH THERMAL      SURFACE EMISSION    SURFACE REFLECTED     TOTAL RADIANCE   INTEGRAL    TOTAL
  (CM-1) (MICRN)    (CM-1)   (MICRN)    (CM-1)   (MICRN)    (CM-1)   (MICRN)    (CM-1)   (MICRN)    (CM-1)   TRANS

    802.   12.469  2.10E-08  1.35E-06  1.31E-05  8.40E-04  0.00E+00  0.00E+00  1.31E-05  8.42E-04  8.16E-03  0.99842
    804.   12.438  3.04E-08  1.96E-06  1.30E-05  8.42E-04  0.00E+00  0.00E+00  1.31E-05  8.44E-04  8.19E-03  0.99772
    806.   12.407  1.85E-08  1.20E-06  1.30E-05  8.45E-04  0.00E+00  0.00E+00  1.30E-05  8.46E-04  8.22E-03  0.99861
    808.   12.376  1.84E-08  1.20E-06  1.30E-05  8.47E-04  0.00E+00  0.00E+00  1.30E-05  8.48E-04  8.24E-03  0.99861
    810.   12.346  1.18E-08  7.74E-07  1.30E-05  8.50E-04  0.00E+00  0.00E+00  1.30E-05  8.51E-04  8.27E-03  0.99911
    812.   12.315  1.05E-08  6.92E-07  1.29E-05  8.52E-04  0.00E+00  0.00E+00  1.29E-05  8.53E-04  8.29E-03  0.99920
    814.   12.285  1.84E-08  1.22E-06  1.29E-05  8.54E-04  0.00E+00  0.00E+00  1.29E-05  8.55E-04  8.32E-03  0.99860
    816.   12.255  1.47E-08  9.79E-07  1.29E-05  8.56E-04  0.00E+00  0.00E+00  1.29E-05  8.57E-04  8.35E-03  0.99888
    818.   12.225  8.18E-09  5.47E-07  1.28E-05  8.59E-04  0.00E+00  0.00E+00  1.28E-05  8.59E-04  8.37E-03  0.99938
    820.   12.195  7.94E-09  5.34E-07  1.28E-05  8.61E-04  0.00E+00  0.00E+00  1.28E-05  8.61E-04  8.40E-03  0.99939
    822.   12.165  7.90E-09  5.34E-07  1.28E-05  8.63E-04  0.00E+00  0.00E+00  1.28E-05  8.63E-04  8.42E-03  0.99939
    824.   12.136  9.29E-09  6.30E-07  1.27E-05  8.65E-04  0.00E+00  0.00E+00  1.27E-05  8.65E-04  8.45E-03  0.99929
    826.   12.107  1.18E-08  8.07E-07  1.27E-05  8.67E-04  0.00E+00  0.00E+00  1.27E-05  8.67E-04  8.47E-03  0.99909
    828.   12.077  1.38E-08  9.44E-07  1.27E-05  8.68E-04  0.00E+00  0.00E+00  1.27E-05  8.69E-04  8.50E-03  0.99894
    830.   12.048  9.27E-09  6.38E-07  1.26E-05  8.71E-04  0.00E+00  0.00E+00  1.26E-05  8.71E-04  8.52E-03  0.99928
    832.   12.019  7.36E-09  5.09E-07  1.26E-05  8.73E-04  0.00E+00  0.00E+00  1.26E-05  8.73E-04  8.55E-03  0.99943
    834.   11.990  7.60E-09  5.29E-07  1.26E-05  8.75E-04  0.00E+00  0.00E+00  1.26E-05  8.75E-04  8.57E-03  0.99941
    836.   11.962  8.21E-09  5.74E-07  1.25E-05  8.77E-04  0.00E+00  0.00E+00  1.26E-05  8.77E-04  8.60E-03  0.99936
    838.   11.933  9.87E-09  6.93E-07  1.25E-05  8.78E-04  0.00E+00  0.00E+00  1.25E-05  8.79E-04  8.62E-03  0.99923
    840.   11.905  1.42E-08  1.01E-06  1.25E-05  8.80E-04  0.00E+00  0.00E+00  1.25E-05  8.81E-04  8.65E-03  0.99888
    842.   11.876  1.01E-08  7.14E-07  1.24E-05  8.82E-04  0.00E+00  0.00E+00  1.25E-05  8.83E-04  8.67E-03  0.99921
    844.   11.848  7.12E-09  5.07E-07  1.24E-05  8.84E-04  0.00E+00  0.00E+00  1.24E-05  8.85E-04  8.70E-03  0.99944
    846.   11.820  6.87E-09  4.91E-07  1.24E-05  8.86E-04  0.00E+00  0.00E+00  1.24E-05  8.86E-04  8.72E-03  0.99946
    848.   11.792  9.37E-09  6.73E-07  1.23E-05  8.88E-04  0.00E+00  0.00E+00  1.24E-05  8.88E-04  8.75E-03  0.99926
    850.   11.765  1.86E-08  1.34E-06  1.23E-05  8.89E-04  0.00E+00  0.00E+00  1.23E-05  8.90E-04  8.77E-03  0.99852
    852.   11.737  2.78E-08  2.02E-06  1.23E-05  8.90E-04  0.00E+00  0.00E+00  1.23E-05  8.92E-04  8.80E-03  0.99779
    854.   11.710  2.14E-08  1.56E-06  1.22E-05  8.92E-04  0.00E+00  0.00E+00  1.23E-05  8.94E-04  8.82E-03  0.99829
    856.   11.682  1.12E-08  8.24E-07  1.22E-05  8.94E-04  0.00E+00  0.00E+00  1.22E-05  8.95E-04  8.85E-03  0.99910
    858.   11.655  6.98E-09  5.14E-07  1.22E-05  8.96E-04  0.00E+00  0.00E+00  1.22E-05  8.97E-04  8.87E-03  0.99944
    860.   11.628  7.04E-09  5.21E-07  1.21E-05  8.98E-04  0.00E+00  0.00E+00  1.22E-05  8.99E-04  8.90E-03  0.99943
    862.   11.601  6.25E-09  4.64E-07  1.21E-05  9.00E-04  0.00E+00  0.00E+00  1.21E-05  9.00E-04  8.92E-03  0.99949
    864.   11.574  8.82E-09  6.58E-07  1.21E-05  9.01E-04  0.00E+00  0.00E+00  1.21E-05  9.02E-04  8.94E-03  0.99928
    866.   11.547  8.85E-09  6.64E-07  1.20E-05  9.03E-04  0.00E+00  0.00E+00  1.20E-05  9.04E-04  8.97E-03  0.99928
    868.   11.521  6.00E-09  4.52E-07  1.20E-05  9.05E-04  0.00E+00  0.00E+00  1.20E-05  9.05E-04  8.99E-03  0.99951
    870.   11.494  9.26E-09  7.01E-07  1.20E-05  9.06E-04  0.00E+00  0.00E+00  1.20E-05  9.07E-04  9.02E-03  0.99924
    872.   11.468  9.31E-09  7.08E-07  1.19E-05  9.08E-04  0.00E+00  0.00E+00  1.19E-05  9.08E-04  9.04E-03  0.99924
    874.   11.442  5.83E-09  4.45E-07  1.19E-05  9.10E-04  0.00E+00  0.00E+00  1.19E-05  9.10E-04  9.06E-03  0.99952
    876.   11.416  5.80E-09  4.45E-07  1.19E-05  9.11E-04  0.00E+00  0.00E+00  1.19E-05  9.12E-04  9.09E-03  0.99952
    878.   11.390  7.53E-09  5.81E-07  1.18E-05  9.12E-04  0.00E+00  0.00E+00  1.18E-05  9.13E-04  9.11E-03  0.99938
    880.   11.364  7.80E-09  6.04E-07  1.18E-05  9.14E-04  0.00E+00  0.00E+00  1.18E-05  9.15E-04  9.13E-03  0.99935
    882.   11.338  7.38E-09  5.74E-07  1.18E-05  9.15E-04  0.00E+00  0.00E+00  1.18E-05  9.16E-04  9.16E-03  0.99939
    884.   11.312  8.81E-09  6.88E-07  1.17E-05  9.17E-04  0.00E+00  0.00E+00  1.17E-05  9.17E-04  9.18E-03  0.99926
    886.   11.287  9.48E-09  7.44E-07  1.17E-05  9.18E-04  0.00E+00  0.00E+00  1.17E-05  9.19E-04  9.21E-03  0.99921
    888.   11.261  9.86E-09  7.78E-07  1.17E-05  9.19E-04  0.00E+00  0.00E+00  1.17E-05  9.20E-04  9.23E-03  0.99917
    890.   11.236  7.49E-09  5.93E-07  1.16E-05  9.21E-04  0.00E+00  0.00E+00  1.16E-05  9.22E-04  9.25E-03  0.99937
    892.   11.211  5.87E-09  4.67E-07  1.16E-05  9.23E-04  0.00E+00  0.00E+00  1.16E-05  9.23E-04  9.28E-03  0.99950
    894.   11.186  5.13E-09  4.10E-07  1.16E-05  9.24E-04  0.00E+00  0.00E+00  1.16E-05  9.24E-04  9.30E-03  0.99956
    896.   11.161  5.30E-09  4.25E-07  1.15E-05  9.25E-04  0.00E+00  0.00E+00  1.15E-05  9.26E-04  9.32E-03  0.99955
    898.   11.136  5.45E-09  4.40E-07  1.15E-05  9.27E-04  0.00E+00  0.00E+00  1.15E-05  9.27E-04  9.34E-03  0.99954
    900.   11.111  5.06E-09  4.10E-07  1.15E-05  9.28E-04  0.00E+00  0.00E+00  1.15E-05  9.28E-04  9.37E-03  0.99957
  iv          905
1                                             RADIANCE(WATTS/CM2-STER-XXX)
0  FREQ   WAVLEN    PATH THERMAL      SURFACE EMISSION    SURFACE REFLECTED     TOTAL RADIANCE   INTEGRAL    TOTAL
  (CM-1) (MICRN)    (CM-1)   (MICRN)    (CM-1)   (MICRN)    (CM-1)   (MICRN)    (CM-1)   (MICRN)    (CM-1)   TRANS

    902.   11.086  4.92E-09  4.01E-07  1.14E-05  9.29E-04  0.00E+00  0.00E+00  1.14E-05  9.30E-04  9.39E-03  0.99958
    904.   11.062  5.45E-09  4.45E-07  1.14E-05  9.30E-04  0.00E+00  0.00E+00  1.14E-05  9.31E-04  9.41E-03  0.99953
    906.   11.038  6.66E-09  5.46E-07  1.13E-05  9.32E-04  0.00E+00  0.00E+00  1.14E-05  9.32E-04  9.44E-03  0.99943
    908.   11.013  1.11E-08  9.17E-07  1.13E-05  9.32E-04  0.00E+00  0.00E+00  1.13E-05  9.33E-04  9.46E-03  0.99904
    910.   10.989  1.05E-08  8.71E-07  1.13E-05  9.34E-04  0.00E+00  0.00E+00  1.13E-05  9.34E-04  9.48E-03  0.99909
    912.   10.965  5.17E-09  4.30E-07  1.12E-05  9.35E-04  0.00E+00  0.00E+00  1.12E-05  9.36E-04  9.50E-03  0.99955
    914.   10.941  5.36E-09  4.47E-07  1.12E-05  9.36E-04  0.00E+00  0.00E+00  1.12E-05  9.37E-04  9.53E-03  0.99953
    916.   10.917  5.09E-09  4.27E-07  1.12E-05  9.38E-04  0.00E+00  0.00E+00  1.12E-05  9.38E-04  9.55E-03  0.99955
    918.   10.893  5.28E-09  4.45E-07  1.11E-05  9.39E-04  0.00E+00  0.00E+00  1.11E-05  9.39E-04  9.57E-03  0.99954
    920.   10.870  6.53E-09  5.52E-07  1.11E-05  9.40E-04  0.00E+00  0.00E+00  1.11E-05  9.40E-04  9.59E-03  0.99942
    922.   10.846  9.16E-09  7.79E-07  1.11E-05  9.40E-04  0.00E+00  0.00E+00  1.11E-05  9.41E-04  9.61E-03  0.99919
    924.   10.823  7.75E-09  6.62E-07  1.10E-05  9.42E-04  0.00E+00  0.00E+00  1.10E-05  9.42E-04  9.64E-03  0.99931
    926.   10.799  6.15E-09  5.28E-07  1.10E-05  9.43E-04  0.00E+00  0.00E+00  1.10E-05  9.43E-04  9.66E-03  0.99945
    928.   10.776  4.64E-09  3.99E-07  1.10E-05  9.44E-04  0.00E+00  0.00E+00  1.10E-05  9.44E-04  9.68E-03  0.99959
    930.   10.753  4.59E-09  3.97E-07  1.09E-05  9.45E-04  0.00E+00  0.00E+00  1.09E-05  9.45E-04  9.70E-03  0.99959
    932.   10.730  4.33E-09  3.76E-07  1.09E-05  9.46E-04  0.00E+00  0.00E+00  1.09E-05  9.46E-04  9.72E-03  0.99961
    934.   10.707  4.24E-09  3.70E-07  1.09E-05  9.47E-04  0.00E+00  0.00E+00  1.09E-05  9.47E-04  9.75E-03  0.99962
    936.   10.684  4.24E-09  3.72E-07  1.08E-05  9.48E-04  0.00E+00  0.00E+00  1.08E-05  9.48E-04  9.77E-03  0.99962
    938.   10.661  4.21E-09  3.71E-07  1.08E-05  9.49E-04  0.00E+00  0.00E+00  1.08E-05  9.49E-04  9.79E-03  0.99962
    940.   10.638  4.42E-09  3.90E-07  1.07E-05  9.50E-04  0.00E+00  0.00E+00  1.08E-05  9.50E-04  9.81E-03  0.99960
    942.   10.616  4.43E-09  3.93E-07  1.07E-05  9.50E-04  0.00E+00  0.00E+00  1.07E-05  9.51E-04  9.83E-03  0.99959
    944.   10.593  4.44E-09  3.96E-07  1.07E-05  9.51E-04  0.00E+00  0.00E+00  1.07E-05  9.52E-04  9.85E-03  0.99959
    946.   10.571  5.97E-09  5.35E-07  1.06E-05  9.52E-04  0.00E+00  0.00E+00  1.06E-05  9.53E-04  9.87E-03  0.99945
    948.   10.549  8.77E-09  7.88E-07  1.06E-05  9.53E-04  0.00E+00  0.00E+00  1.06E-05  9.53E-04  9.90E-03  0.99919
    950.   10.526  5.53E-09  4.99E-07  1.06E-05  9.54E-04  0.00E+00  0.00E+00  1.06E-05  9.54E-04  9.92E-03  0.99949
    952.   10.504  4.64E-09  4.21E-07  1.05E-05  9.54E-04  0.00E+00  0.00E+00  1.05E-05  9.55E-04  9.94E-03  0.99957
    954.   10.482  5.41E-09  4.93E-07  1.05E-05  9.55E-04  0.00E+00  0.00E+00  1.05E-05  9.56E-04  9.96E-03  0.99949
    956.   10.460  4.77E-09  4.36E-07  1.05E-05  9.56E-04  0.00E+00  0.00E+00  1.05E-05  9.56E-04  9.98E-03  0.99955
    958.   10.438  4.10E-09  3.76E-07  1.04E-05  9.57E-04  0.00E+00  0.00E+00  1.04E-05  9.57E-04  1.00E-02  0.99962
    960.   10.417  4.15E-09  3.82E-07  1.04E-05  9.57E-04  0.00E+00  0.00E+00  1.04E-05  9.58E-04  1.00E-02  0.99961
    962.   10.395  3.70E-09  3.42E-07  1.04E-05  9.58E-04  0.00E+00  0.00E+00  1.04E-05  9.58E-04  1.00E-02  0.99965
    964.   10.373  3.57E-09  3.32E-07  1.03E-05  9.59E-04  0.00E+00  0.00E+00  1.03E-05  9.59E-04  1.01E-02  0.99966
    966.   10.352  4.10E-09  3.83E-07  1.03E-05  9.59E-04  0.00E+00  0.00E+00  1.03E-05  9.60E-04  1.01E-02  0.99961
    968.   10.331  3.95E-09  3.70E-07  1.02E-05  9.60E-04  0.00E+00  0.00E+00  1.02E-05  9.60E-04  1.01E-02  0.99962
    970.   10.309  4.23E-09  3.98E-07  1.02E-05  9.61E-04  0.00E+00  0.00E+00  1.02E-05  9.61E-04  1.01E-02  0.99959
    972.   10.288  5.28E-09  4.99E-07  1.02E-05  9.61E-04  0.00E+00  0.00E+00  1.02E-05  9.62E-04  1.01E-02  0.99949
    974.   10.267  5.23E-09  4.96E-07  1.01E-05  9.62E-04  0.00E+00  0.00E+00  1.01E-05  9.62E-04  1.02E-02  0.99949
    976.   10.246  5.30E-09  5.05E-07  1.01E-05  9.62E-04  0.00E+00  0.00E+00  1.01E-05  9.63E-04  1.02E-02  0.99949
    978.   10.225  4.15E-09  3.97E-07  1.01E-05  9.63E-04  0.00E+00  0.00E+00  1.01E-05  9.63E-04  1.02E-02  0.99960
    980.   10.204  3.30E-09  3.17E-07  1.00E-05  9.63E-04  0.00E+00  0.00E+00  1.00E-05  9.64E-04  1.02E-02  0.99968
    982.   10.183  3.33E-09  3.21E-07  1.00E-05  9.64E-04  0.00E+00  0.00E+00  1.00E-05  9.64E-04  1.02E-02  0.99967
    984.   10.163  3.33E-09  3.23E-07  9.96E-06  9.64E-04  0.00E+00  0.00E+00  9.96E-06  9.65E-04  1.03E-02  0.99967
    986.   10.142  3.05E-09  2.97E-07  9.92E-06  9.65E-04  0.00E+00  0.00E+00  9.93E-06  9.65E-04  1.03E-02  0.99970
    988.   10.121  2.95E-09  2.88E-07  9.89E-06  9.65E-04  0.00E+00  0.00E+00  9.89E-06  9.66E-04  1.03E-02  0.99971
    990.   10.101  2.97E-09  2.91E-07  9.85E-06  9.66E-04  0.00E+00  0.00E+00  9.86E-06  9.66E-04  1.03E-02  0.99971
    992.   10.081  2.87E-09  2.82E-07  9.82E-06  9.66E-04  0.00E+00  0.00E+00  9.82E-06  9.66E-04  1.03E-02  0.99971
    994.   10.060  2.84E-09  2.81E-07  9.78E-06  9.66E-04  0.00E+00  0.00E+00  9.78E-06  9.67E-04  1.04E-02  0.99972
    996.   10.040  2.81E-09  2.79E-07  9.75E-06  9.67E-04  0.00E+00  0.00E+00  9.75E-06  9.67E-04  1.04E-02  0.99972
    998.   10.020  3.35E-09  3.33E-07  9.71E-06  9.67E-04  0.00E+00  0.00E+00  9.71E-06  9.67E-04  1.04E-02  0.99966
   1000.   10.000  3.78E-09  3.78E-07  9.67E-06  9.67E-04  0.00E+00  0.00E+00  9.68E-06  9.68E-04  1.04E-02  0.99962
  iv         1005
1                                             RADIANCE(WATTS/CM2-STER-XXX)
0  FREQ   WAVLEN    PATH THERMAL      SURFACE EMISSION    SURFACE REFLECTED     TOTAL RADIANCE   INTEGRAL    TOTAL
  (CM-1) (MICRN)    (CM-1)   (MICRN)    (CM-1)   (MICRN)    (CM-1)   (MICRN)    (CM-1)   (MICRN)    (CM-1)   TRANS

   1002.    9.980  3.14E-09  3.16E-07  9.64E-06  9.68E-04  0.00E+00  0.00E+00  9.64E-06  9.68E-04  1.04E-02  0.99968
   1004.    9.960  3.16E-09  3.19E-07  9.60E-06  9.68E-04  0.00E+00  0.00E+00  9.61E-06  9.68E-04  1.05E-02  0.99968
   1006.    9.940  2.90E-09  2.94E-07  9.57E-06  9.68E-04  0.00E+00  0.00E+00  9.57E-06  9.69E-04  1.05E-02  0.99970
   1008.    9.921  3.16E-09  3.21E-07  9.53E-06  9.69E-04  0.00E+00  0.00E+00  9.54E-06  9.69E-04  1.05E-02  0.99967
   1010.    9.901  4.80E-09  4.90E-07  9.49E-06  9.69E-04  0.00E+00  0.00E+00  9.50E-06  9.69E-04  1.05E-02  0.99950
   1012.    9.881  5.15E-09  5.28E-07  9.46E-06  9.69E-04  0.00E+00  0.00E+00  9.46E-06  9.69E-04  1.05E-02  0.99947
   1014.    9.862  6.23E-09  6.41E-07  9.42E-06  9.69E-04  0.00E+00  0.00E+00  9.43E-06  9.69E-04  1.06E-02  0.99935
   1016.    9.843  4.72E-09  4.87E-07  9.39E-06  9.69E-04  0.00E+00  0.00E+00  9.39E-06  9.70E-04  1.06E-02  0.99951
   1018.    9.823  4.40E-09  4.56E-07  9.35E-06  9.69E-04  0.00E+00  0.00E+00  9.36E-06  9.70E-04  1.06E-02  0.99954
   1020.    9.804  3.15E-09  3.28E-07  9.32E-06  9.70E-04  0.00E+00  0.00E+00  9.32E-06  9.70E-04  1.06E-02  0.99967
   1022.    9.785  2.65E-09  2.76E-07  9.28E-06  9.70E-04  0.00E+00  0.00E+00  9.29E-06  9.70E-04  1.06E-02  0.99972
   1024.    9.766  2.49E-09  2.62E-07  9.25E-06  9.70E-04  0.00E+00  0.00E+00  9.25E-06  9.70E-04  1.06E-02  0.99974
   1026.    9.747  2.90E-09  3.06E-07  9.21E-06  9.70E-04  0.00E+00  0.00E+00  9.22E-06  9.70E-04  1.07E-02  0.99969
   1028.    9.728  5.06E-09  5.34E-07  9.18E-06  9.70E-04  0.00E+00  0.00E+00  9.18E-06  9.70E-04  1.07E-02  0.99946
   1030.    9.709  4.88E-09  5.18E-07  9.14E-06  9.70E-04  0.00E+00  0.00E+00  9.15E-06  9.70E-04  1.07E-02  0.99948
   1032.    9.690  3.15E-09  3.35E-07  9.11E-06  9.70E-04  0.00E+00  0.00E+00  9.11E-06  9.70E-04  1.07E-02  0.99966
   1034.    9.671  2.51E-09  2.68E-07  9.07E-06  9.70E-04  0.00E+00  0.00E+00  9.08E-06  9.70E-04  1.07E-02  0.99973
   1036.    9.653  2.39E-09  2.57E-07  9.04E-06  9.70E-04  0.00E+00  0.00E+00  9.04E-06  9.70E-04  1.08E-02  0.99974
   1038.    9.634  3.08E-09  3.32E-07  9.00E-06  9.70E-04  0.00E+00  0.00E+00  9.01E-06  9.70E-04  1.08E-02  0.99966
   1040.    9.615  3.16E-09  3.42E-07  8.97E-06  9.70E-04  0.00E+00  0.00E+00  8.97E-06  9.70E-04  1.08E-02  0.99965
   1042.    9.597  2.75E-09  2.98E-07  8.93E-06  9.70E-04  0.00E+00  0.00E+00  8.94E-06  9.70E-04  1.08E-02  0.99970
   1044.    9.579  2.58E-09  2.82E-07  8.90E-06  9.70E-04  0.00E+00  0.00E+00  8.90E-06  9.70E-04  1.08E-02  0.99972
   1046.    9.560  2.22E-09  2.43E-07  8.86E-06  9.70E-04  0.00E+00  0.00E+00  8.87E-06  9.70E-04  1.08E-02  0.99975
   1048.    9.542  2.90E-09  3.18E-07  8.83E-06  9.70E-04  0.00E+00  0.00E+00  8.83E-06  9.70E-04  1.09E-02  0.99968
   1050.    9.524  3.71E-09  4.09E-07  8.79E-06  9.69E-04  0.00E+00  0.00E+00  8.80E-06  9.70E-04  1.09E-02  0.99959
   1052.    9.506  3.10E-09  3.43E-07  8.76E-06  9.69E-04  0.00E+00  0.00E+00  8.76E-06  9.70E-04  1.09E-02  0.99965
   1054.    9.488  2.67E-09  2.97E-07  8.72E-06  9.69E-04  0.00E+00  0.00E+00  8.73E-06  9.70E-04  1.09E-02  0.99970
   1056.    9.470  3.11E-09  3.47E-07  8.69E-06  9.69E-04  0.00E+00  0.00E+00  8.69E-06  9.69E-04  1.09E-02  0.99965
   1058.    9.452  3.23E-09  3.62E-07  8.65E-06  9.69E-04  0.00E+00  0.00E+00  8.66E-06  9.69E-04  1.10E-02  0.99963
   1060.    9.434  3.83E-09  4.30E-07  8.62E-06  9.69E-04  0.00E+00  0.00E+00  8.62E-06  9.69E-04  1.10E-02  0.99956
   1062.    9.416  3.28E-09  3.70E-07  8.59E-06  9.68E-04  0.00E+00  0.00E+00  8.59E-06  9.69E-04  1.10E-02  0.99963
   1064.    9.398  6.07E-09  6.87E-07  8.55E-06  9.68E-04  0.00E+00  0.00E+00  8.55E-06  9.68E-04  1.10E-02  0.99930
   1066.    9.381  1.24E-08  1.41E-06  8.51E-06  9.67E-04  0.00E+00  0.00E+00  8.52E-06  9.68E-04  1.10E-02  0.99857
   1068.    9.363  5.73E-09  6.54E-07  8.48E-06  9.67E-04  0.00E+00  0.00E+00  8.49E-06  9.68E-04  1.10E-02  0.99934
   1070.    9.346  2.02E-09  2.31E-07  8.45E-06  9.67E-04  0.00E+00  0.00E+00  8.45E-06  9.68E-04  1.11E-02  0.99977
   1072.    9.328  3.66E-09  4.21E-07  8.41E-06  9.67E-04  0.00E+00  0.00E+00  8.42E-06  9.67E-04  1.11E-02  0.99957
   1074.    9.311  6.21E-09  7.17E-07  8.38E-06  9.66E-04  0.00E+00  0.00E+00  8.38E-06  9.67E-04  1.11E-02  0.99927
   1076.    9.294  3.69E-09  4.27E-07  8.35E-06  9.66E-04  0.00E+00  0.00E+00  8.35E-06  9.67E-04  1.11E-02  0.99957
   1078.    9.276  2.08E-09  2.42E-07  8.31E-06  9.66E-04  0.00E+00  0.00E+00  8.32E-06  9.66E-04  1.11E-02  0.99975
   1080.    9.259  2.05E-09  2.39E-07  8.28E-06  9.66E-04  0.00E+00  0.00E+00  8.28E-06  9.66E-04  1.11E-02  0.99976
   1082.    9.242  2.01E-09  2.35E-07  8.25E-06  9.65E-04  0.00E+00  0.00E+00  8.25E-06  9.66E-04  1.12E-02  0.99976
   1084.    9.225  2.13E-09  2.51E-07  8.21E-06  9.65E-04  0.00E+00  0.00E+00  8.21E-06  9.65E-04  1.12E-02  0.99975
   1086.    9.208  2.18E-09  2.57E-07  8.18E-06  9.64E-04  0.00E+00  0.00E+00  8.18E-06  9.65E-04  1.12E-02  0.99974
   1088.    9.191  1.96E-09  2.32E-07  8.14E-06  9.64E-04  0.00E+00  0.00E+00  8.15E-06  9.64E-04  1.12E-02  0.99976
   1090.    9.174  5.08E-09  6.03E-07  8.11E-06  9.63E-04  0.00E+00  0.00E+00  8.11E-06  9.64E-04  1.12E-02  0.99939
   1092.    9.158  5.17E-09  6.17E-07  8.07E-06  9.63E-04  0.00E+00  0.00E+00  8.08E-06  9.63E-04  1.12E-02  0.99937
   1094.    9.141  1.78E-09  2.12E-07  8.04E-06  9.63E-04  0.00E+00  0.00E+00  8.04E-06  9.63E-04  1.13E-02  0.99978
   1096.    9.124  1.63E-09  1.96E-07  8.01E-06  9.62E-04  0.00E+00  0.00E+00  8.01E-06  9.62E-04  1.13E-02  0.99980
   1098.    9.107  3.05E-09  3.68E-07  7.98E-06  9.61E-04  0.00E+00  0.00E+00  7.98E-06  9.62E-04  1.13E-02  0.99962
   1100.    9.091  7.93E-09  9.59E-07  7.94E-06  9.60E-04  0.00E+00  0.00E+00  7.94E-06  9.61E-04  1.13E-02  0.99902
  iv         1105
1                                             RADIANCE(WATTS/CM2-STER-XXX)
0  FREQ   WAVLEN    PATH THERMAL      SURFACE EMISSION    SURFACE REFLECTED     TOTAL RADIANCE   INTEGRAL    TOTAL
  (CM-1) (MICRN)    (CM-1)   (MICRN)    (CM-1)   (MICRN)    (CM-1)   (MICRN)    (CM-1)   (MICRN)    (CM-1)   TRANS

   1102.    9.074  5.56E-09  6.76E-07  7.91E-06  9.60E-04  0.00E+00  0.00E+00  7.91E-06  9.61E-04  1.13E-02  0.99931
   1104.    9.058  2.06E-09  2.51E-07  7.88E-06  9.60E-04  0.00E+00  0.00E+00  7.88E-06  9.60E-04  1.13E-02  0.99974
   1106.    9.042  9.22E-09  1.13E-06  7.84E-06  9.59E-04  0.00E+00  0.00E+00  7.85E-06  9.60E-04  1.13E-02  0.99885
   1108.    9.025  8.94E-09  1.10E-06  7.80E-06  9.58E-04  0.00E+00  0.00E+00  7.81E-06  9.59E-04  1.14E-02  0.99888
   1110.    9.009  3.93E-09  4.85E-07  7.77E-06  9.58E-04  0.00E+00  0.00E+00  7.78E-06  9.58E-04  1.14E-02  0.99950
   1112.    8.993  7.40E-09  9.15E-07  7.74E-06  9.57E-04  0.00E+00  0.00E+00  7.75E-06  9.58E-04  1.14E-02  0.99906
   1114.    8.977  3.49E-09  4.33E-07  7.71E-06  9.57E-04  0.00E+00  0.00E+00  7.71E-06  9.57E-04  1.14E-02  0.99956
   1116.    8.961  1.85E-09  2.30E-07  7.68E-06  9.56E-04  0.00E+00  0.00E+00  7.68E-06  9.57E-04  1.14E-02  0.99976
   1118.    8.945  2.34E-09  2.93E-07  7.65E-06  9.56E-04  0.00E+00  0.00E+00  7.65E-06  9.56E-04  1.14E-02  0.99970
   1120.    8.929  9.15E-09  1.15E-06  7.61E-06  9.54E-04  0.00E+00  0.00E+00  7.61E-06  9.55E-04  1.15E-02  0.99882
   1122.    8.913  9.13E-09  1.15E-06  7.57E-06  9.53E-04  0.00E+00  0.00E+00  7.58E-06  9.55E-04  1.15E-02  0.99882
   1124.    8.897  1.85E-09  2.34E-07  7.55E-06  9.54E-04  0.00E+00  0.00E+00  7.55E-06  9.54E-04  1.15E-02  0.99976
   1126.    8.881  1.55E-09  1.97E-07  7.52E-06  9.53E-04  0.00E+00  0.00E+00  7.52E-06  9.53E-04  1.15E-02  0.99980
   1128.    8.865  1.51E-09  1.93E-07  7.48E-06  9.52E-04  0.00E+00  0.00E+00  7.48E-06  9.52E-04  1.15E-02  0.99980
   1130.    8.850  1.60E-09  2.04E-07  7.45E-06  9.51E-04  0.00E+00  0.00E+00  7.45E-06  9.52E-04  1.15E-02  0.99979
   1132.    8.834  1.85E-09  2.36E-07  7.42E-06  9.51E-04  0.00E+00  0.00E+00  7.42E-06  9.51E-04  1.15E-02  0.99976
   1134.    8.818  1.31E-08  1.68E-06  7.37E-06  9.48E-04  0.00E+00  0.00E+00  7.39E-06  9.50E-04  1.16E-02  0.99826
   1136.    8.803  3.65E-08  4.71E-06  7.32E-06  9.45E-04  0.00E+00  0.00E+00  7.36E-06  9.49E-04  1.16E-02  0.99513
   1138.    8.787  1.67E-08  2.17E-06  7.31E-06  9.46E-04  0.00E+00  0.00E+00  7.32E-06  9.48E-04  1.16E-02  0.99777
   1140.    8.772  2.14E-09  2.78E-07  7.29E-06  9.47E-04  0.00E+00  0.00E+00  7.29E-06  9.48E-04  1.16E-02  0.99971
   1142.    8.757  2.00E-09  2.60E-07  7.26E-06  9.47E-04  0.00E+00  0.00E+00  7.26E-06  9.47E-04  1.16E-02  0.99973
   1144.    8.741  1.65E-09  2.16E-07  7.23E-06  9.46E-04  0.00E+00  0.00E+00  7.23E-06  9.46E-04  1.16E-02  0.99978
   1146.    8.726  1.56E-09  2.05E-07  7.19E-06  9.45E-04  0.00E+00  0.00E+00  7.20E-06  9.45E-04  1.16E-02  0.99979
   1148.    8.711  7.30E-09  9.63E-07  7.16E-06  9.43E-04  0.00E+00  0.00E+00  7.16E-06  9.44E-04  1.17E-02  0.99900
   1150.    8.696  1.04E-08  1.37E-06  7.12E-06  9.42E-04  0.00E+00  0.00E+00  7.13E-06  9.43E-04  1.17E-02  0.99858
   1152.    8.681  9.88E-09  1.31E-06  7.09E-06  9.41E-04  0.00E+00  0.00E+00  7.10E-06  9.42E-04  1.17E-02  0.99864
   1154.    8.666  4.56E-09  6.07E-07  7.07E-06  9.41E-04  0.00E+00  0.00E+00  7.07E-06  9.42E-04  1.17E-02  0.99937
   1156.    8.651  1.52E-09  2.03E-07  7.04E-06  9.40E-04  0.00E+00  0.00E+00  7.04E-06  9.41E-04  1.17E-02  0.99979
   1158.    8.636  1.42E-09  1.90E-07  7.01E-06  9.39E-04  0.00E+00  0.00E+00  7.01E-06  9.40E-04  1.17E-02  0.99980
   1160.    8.621  1.47E-09  1.98E-07  6.97E-06  9.39E-04  0.00E+00  0.00E+00  6.98E-06  9.39E-04  1.17E-02  0.99979
   1162.    8.606  1.67E-09  2.25E-07  6.94E-06  9.38E-04  0.00E+00  0.00E+00  6.95E-06  9.38E-04  1.18E-02  0.99976
   1164.    8.591  8.00E-09  1.08E-06  6.91E-06  9.36E-04  0.00E+00  0.00E+00  6.91E-06  9.37E-04  1.18E-02  0.99886
   1166.    8.576  9.67E-09  1.31E-06  6.87E-06  9.35E-04  0.00E+00  0.00E+00  6.88E-06  9.36E-04  1.18E-02  0.99863
   1168.    8.562  2.72E-09  3.72E-07  6.85E-06  9.34E-04  0.00E+00  0.00E+00  6.85E-06  9.35E-04  1.18E-02  0.99961
   1170.    8.547  2.02E-09  2.76E-07  6.82E-06  9.34E-04  0.00E+00  0.00E+00  6.82E-06  9.34E-04  1.18E-02  0.99971
   1172.    8.532  6.43E-09  8.83E-07  6.78E-06  9.32E-04  0.00E+00  0.00E+00  6.79E-06  9.33E-04  1.18E-02  0.99907
   1174.    8.518  5.04E-08  6.95E-06  6.71E-06  9.25E-04  0.00E+00  0.00E+00  6.76E-06  9.32E-04  1.18E-02  0.99268
   1176.    8.503  4.33E-08  5.99E-06  6.69E-06  9.25E-04  0.00E+00  0.00E+00  6.73E-06  9.31E-04  1.19E-02  0.99370
   1178.    8.489  2.66E-09  3.68E-07  6.70E-06  9.29E-04  0.00E+00  0.00E+00  6.70E-06  9.30E-04  1.19E-02  0.99961
   1180.    8.475  2.43E-09  3.38E-07  6.67E-06  9.28E-04  0.00E+00  0.00E+00  6.67E-06  9.29E-04  1.19E-02  0.99964
   1182.    8.460  2.29E-09  3.21E-07  6.64E-06  9.27E-04  0.00E+00  0.00E+00  6.64E-06  9.27E-04  1.19E-02  0.99966
   1184.    8.446  2.80E-09  3.92E-07  6.61E-06  9.26E-04  0.00E+00  0.00E+00  6.61E-06  9.26E-04  1.19E-02  0.99958
   1186.    8.432  3.35E-08  4.71E-06  6.55E-06  9.21E-04  0.00E+00  0.00E+00  6.58E-06  9.25E-04  1.19E-02  0.99500
   1188.    8.418  3.55E-08  5.01E-06  6.51E-06  9.19E-04  0.00E+00  0.00E+00  6.55E-06  9.24E-04  1.19E-02  0.99470
   1190.    8.403  4.02E-09  5.69E-07  6.51E-06  9.22E-04  0.00E+00  0.00E+00  6.52E-06  9.23E-04  1.19E-02  0.99940
   1192.    8.389  2.41E-09  3.43E-07  6.49E-06  9.22E-04  0.00E+00  0.00E+00  6.49E-06  9.22E-04  1.20E-02  0.99964
   1194.    8.375  2.45E-09  3.49E-07  6.46E-06  9.20E-04  0.00E+00  0.00E+00  6.46E-06  9.21E-04  1.20E-02  0.99963
   1196.    8.361  1.01E-08  1.44E-06  6.42E-06  9.18E-04  0.00E+00  0.00E+00  6.43E-06  9.20E-04  1.20E-02  0.99846
   1198.    8.347  2.63E-08  3.77E-06  6.37E-06  9.15E-04  0.00E+00  0.00E+00  6.40E-06  9.18E-04  1.20E-02  0.99597
   1200.    8.333  1.12E-08  1.61E-06  6.36E-06  9.16E-04  0.00E+00  0.00E+00  6.37E-06  9.17E-04  1.20E-02  0.99828
  iv         1205
1                                             RADIANCE(WATTS/CM2-STER-XXX)
0  FREQ   WAVLEN    PATH THERMAL      SURFACE EMISSION    SURFACE REFLECTED     TOTAL RADIANCE   INTEGRAL    TOTAL
  (CM-1) (MICRN)    (CM-1)   (MICRN)    (CM-1)   (MICRN)    (CM-1)   (MICRN)    (CM-1)   (MICRN)    (CM-1)   TRANS

   1202.    8.319  1.84E-09  2.65E-07  6.34E-06  9.16E-04  0.00E+00  0.00E+00  6.34E-06  9.16E-04  1.20E-02  0.99972
   1204.    8.306  1.97E-09  2.86E-07  6.31E-06  9.15E-04  0.00E+00  0.00E+00  6.31E-06  9.15E-04  1.20E-02  0.99969
   1206.    8.292  2.96E-09  4.31E-07  6.28E-06  9.13E-04  0.00E+00  0.00E+00  6.28E-06  9.14E-04  1.21E-02  0.99954
   1208.    8.278  2.98E-09  4.34E-07  6.25E-06  9.12E-04  0.00E+00  0.00E+00  6.25E-06  9.12E-04  1.21E-02  0.99953
   1210.    8.264  2.69E-08  3.94E-06  6.20E-06  9.07E-04  0.00E+00  0.00E+00  6.22E-06  9.11E-04  1.21E-02  0.99574
   1212.    8.251  6.46E-08  9.49E-06  6.13E-06  9.01E-04  0.00E+00  0.00E+00  6.20E-06  9.10E-04  1.21E-02  0.98977
   1214.    8.237  2.51E-08  3.70E-06  6.14E-06  9.05E-04  0.00E+00  0.00E+00  6.17E-06  9.09E-04  1.21E-02  0.99603
   1216.    8.224  4.15E-09  6.13E-07  6.13E-06  9.07E-04  0.00E+00  0.00E+00  6.14E-06  9.07E-04  1.21E-02  0.99934
   1218.    8.210  1.82E-08  2.70E-06  6.09E-06  9.03E-04  0.00E+00  0.00E+00  6.11E-06  9.06E-04  1.21E-02  0.99708
   1220.    8.197  1.92E-08  2.86E-06  6.06E-06  9.02E-04  0.00E+00  0.00E+00  6.08E-06  9.05E-04  1.21E-02  0.99690
   1222.    8.183  5.55E-09  8.29E-07  6.04E-06  9.03E-04  0.00E+00  0.00E+00  6.05E-06  9.03E-04  1.21E-02  0.99910
   1224.    8.170  4.15E-08  6.22E-06  5.98E-06  8.96E-04  0.00E+00  0.00E+00  6.02E-06  9.02E-04  1.22E-02  0.99323
   1226.    8.157  4.95E-08  7.45E-06  5.94E-06  8.94E-04  0.00E+00  0.00E+00  5.99E-06  9.01E-04  1.22E-02  0.99191
   1228.    8.143  8.22E-09  1.24E-06  5.96E-06  8.98E-04  0.00E+00  0.00E+00  5.97E-06  9.00E-04  1.22E-02  0.99865
   1230.    8.130  2.67E-09  4.03E-07  5.93E-06  8.98E-04  0.00E+00  0.00E+00  5.94E-06  8.98E-04  1.22E-02  0.99956
   1232.    8.117  1.98E-09  3.01E-07  5.91E-06  8.97E-04  0.00E+00  0.00E+00  5.91E-06  8.97E-04  1.22E-02  0.99967
   1234.    8.104  2.20E-09  3.35E-07  5.88E-06  8.95E-04  0.00E+00  0.00E+00  5.88E-06  8.95E-04  1.22E-02  0.99963
   1236.    8.091  3.84E-09  5.87E-07  5.85E-06  8.93E-04  0.00E+00  0.00E+00  5.85E-06  8.94E-04  1.22E-02  0.99936
   1238.    8.078  9.34E-09  1.43E-06  5.82E-06  8.91E-04  0.00E+00  0.00E+00  5.82E-06  8.93E-04  1.22E-02  0.99843
   1240.    8.065  9.61E-09  1.48E-06  5.79E-06  8.90E-04  0.00E+00  0.00E+00  5.80E-06  8.91E-04  1.23E-02  0.99838
   1242.    8.052  2.66E-08  4.10E-06  5.74E-06  8.86E-04  0.00E+00  0.00E+00  5.77E-06  8.90E-04  1.23E-02  0.99547
   1244.    8.039  6.66E-08  1.03E-05  5.68E-06  8.78E-04  0.00E+00  0.00E+00  5.74E-06  8.89E-04  1.23E-02  0.98864
   1246.    8.026  2.76E-08  4.28E-06  5.69E-06  8.83E-04  0.00E+00  0.00E+00  5.71E-06  8.87E-04  1.23E-02  0.99529
   1248.    8.013  6.50E-09  1.01E-06  5.68E-06  8.85E-04  0.00E+00  0.00E+00  5.69E-06  8.86E-04  1.23E-02  0.99888
   1250.    8.000  5.81E-09  9.07E-07  5.65E-06  8.83E-04  0.00E+00  0.00E+00  5.66E-06  8.84E-04  1.23E-02  0.99899
   1252.    7.987  6.97E-09  1.09E-06  5.62E-06  8.82E-04  0.00E+00  0.00E+00  5.63E-06  8.83E-04  1.23E-02  0.99879
   1254.    7.974  6.38E-09  1.00E-06  5.60E-06  8.80E-04  0.00E+00  0.00E+00  5.60E-06  8.81E-04  1.23E-02  0.99889
   1256.    7.962  6.67E-09  1.05E-06  5.57E-06  8.79E-04  0.00E+00  0.00E+00  5.58E-06  8.80E-04  1.23E-02  0.99883
   1258.    7.949  6.95E-08  1.10E-05  5.48E-06  8.68E-04  0.00E+00  0.00E+00  5.55E-06  8.79E-04  1.24E-02  0.98768
   1260.    7.937  1.84E-07  2.92E-05  5.34E-06  8.48E-04  0.00E+00  0.00E+00  5.53E-06  8.78E-04  1.24E-02  0.96741
   1262.    7.924  7.39E-08  1.18E-05  5.42E-06  8.64E-04  0.00E+00  0.00E+00  5.50E-06  8.76E-04  1.24E-02  0.98687
   1264.    7.911  3.25E-08  5.19E-06  5.44E-06  8.69E-04  0.00E+00  0.00E+00  5.47E-06  8.74E-04  1.24E-02  0.99417
   1266.    7.899  7.98E-08  1.28E-05  5.37E-06  8.60E-04  0.00E+00  0.00E+00  5.45E-06  8.73E-04  1.24E-02  0.98562
   1268.    7.886  1.35E-07  2.16E-05  5.29E-06  8.50E-04  0.00E+00  0.00E+00  5.42E-06  8.71E-04  1.24E-02  0.97563
   1270.    7.874  2.02E-07  3.26E-05  5.19E-06  8.37E-04  0.00E+00  0.00E+00  5.39E-06  8.70E-04  1.24E-02  0.96319
   1272.    7.862  2.27E-07  3.68E-05  5.14E-06  8.32E-04  0.00E+00  0.00E+00  5.37E-06  8.69E-04  1.24E-02  0.95853
   1274.    7.849  6.91E-08  1.12E-05  5.27E-06  8.55E-04  0.00E+00  0.00E+00  5.34E-06  8.67E-04  1.24E-02  0.98737
   1276.    7.837  6.31E-09  1.03E-06  5.31E-06  8.64E-04  0.00E+00  0.00E+00  5.31E-06  8.65E-04  1.25E-02  0.99884
   1278.    7.825  1.64E-08  2.67E-06  5.27E-06  8.61E-04  0.00E+00  0.00E+00  5.29E-06  8.63E-04  1.25E-02  0.99696
   1280.    7.813  4.41E-08  7.22E-06  5.22E-06  8.55E-04  0.00E+00  0.00E+00  5.26E-06  8.62E-04  1.25E-02  0.99178
   1282.    7.800  2.76E-08  4.54E-06  5.21E-06  8.56E-04  0.00E+00  0.00E+00  5.23E-06  8.60E-04  1.25E-02  0.99483
   1284.    7.788  2.14E-08  3.52E-06  5.19E-06  8.55E-04  0.00E+00  0.00E+00  5.21E-06  8.59E-04  1.25E-02  0.99597
   1286.    7.776  1.17E-07  1.94E-05  5.07E-06  8.38E-04  0.00E+00  0.00E+00  5.18E-06  8.57E-04  1.25E-02  0.97781
   1288.    7.764  1.90E-07  3.15E-05  4.97E-06  8.25E-04  0.00E+00  0.00E+00  5.16E-06  8.56E-04  1.25E-02  0.96396
   1290.    7.752  9.89E-08  1.65E-05  5.03E-06  8.38E-04  0.00E+00  0.00E+00  5.13E-06  8.54E-04  1.25E-02  0.98113
   1292.    7.740  4.88E-08  8.14E-06  5.06E-06  8.44E-04  0.00E+00  0.00E+00  5.11E-06  8.52E-04  1.25E-02  0.99066
   1294.    7.728  2.01E-08  3.37E-06  5.06E-06  8.47E-04  0.00E+00  0.00E+00  5.08E-06  8.51E-04  1.25E-02  0.99611
   1296.    7.716  6.64E-08  1.12E-05  4.99E-06  8.38E-04  0.00E+00  0.00E+00  5.06E-06  8.49E-04  1.26E-02  0.98711
   1298.    7.704  4.51E-08  7.60E-06  4.99E-06  8.40E-04  0.00E+00  0.00E+00  5.03E-06  8.48E-04  1.26E-02  0.99123
   1300.    7.692  6.78E-09  1.15E-06  5.00E-06  8.45E-04  0.00E+00  0.00E+00  5.00E-06  8.46E-04  1.26E-02  0.99867
  iv         1305
1                                             RADIANCE(WATTS/CM2-STER-XXX)
0  FREQ   WAVLEN    PATH THERMAL      SURFACE EMISSION    SURFACE REFLECTED     TOTAL RADIANCE   INTEGRAL    TOTAL
  (CM-1) (MICRN)    (CM-1)   (MICRN)    (CM-1)   (MICRN)    (CM-1)   (MICRN)    (CM-1)   (MICRN)    (CM-1)   TRANS

   1302.    7.680  7.96E-09  1.35E-06  4.97E-06  8.43E-04  0.00E+00  0.00E+00  4.98E-06  8.44E-04  1.26E-02  0.99843
   1304.    7.669  2.05E-08  3.49E-06  4.93E-06  8.39E-04  0.00E+00  0.00E+00  4.96E-06  8.43E-04  1.26E-02  0.99593
   1306.    7.657  5.97E-08  1.02E-05  4.87E-06  8.31E-04  0.00E+00  0.00E+00  4.93E-06  8.41E-04  1.26E-02  0.98811
   1308.    7.645  1.22E-07  2.08E-05  4.79E-06  8.19E-04  0.00E+00  0.00E+00  4.91E-06  8.40E-04  1.26E-02  0.97570
   1310.    7.634  8.57E-08  1.47E-05  4.80E-06  8.23E-04  0.00E+00  0.00E+00  4.88E-06  8.38E-04  1.26E-02  0.98280
   1312.    7.622  3.09E-07  5.31E-05  4.55E-06  7.84E-04  0.00E+00  0.00E+00  4.86E-06  8.37E-04  1.26E-02  0.93756
   1314.    7.610  4.36E-07  7.52E-05  4.40E-06  7.60E-04  0.00E+00  0.00E+00  4.84E-06  8.36E-04  1.26E-02  0.91164
   1316.    7.599  3.84E-07  6.65E-05  4.43E-06  7.67E-04  0.00E+00  0.00E+00  4.81E-06  8.34E-04  1.27E-02  0.92165
   1318.    7.587  5.61E-07  9.75E-05  4.23E-06  7.35E-04  0.00E+00  0.00E+00  4.79E-06  8.33E-04  1.27E-02  0.88497
   1320.    7.576  4.80E-07  8.36E-05  4.29E-06  7.47E-04  0.00E+00  0.00E+00  4.77E-06  8.31E-04  1.27E-02  0.90134
   1322.    7.564  1.51E-07  2.63E-05  4.59E-06  8.02E-04  0.00E+00  0.00E+00  4.74E-06  8.28E-04  1.27E-02  0.96887
   1324.    7.553  4.98E-08  8.72E-06  4.66E-06  8.17E-04  0.00E+00  0.00E+00  4.71E-06  8.26E-04  1.27E-02  0.98966
   1326.    7.541  2.44E-08  4.30E-06  4.66E-06  8.20E-04  0.00E+00  0.00E+00  4.69E-06  8.24E-04  1.27E-02  0.99489
   1328.    7.530  4.17E-08  7.36E-06  4.62E-06  8.15E-04  0.00E+00  0.00E+00  4.66E-06  8.22E-04  1.27E-02  0.99122
   1330.    7.519  6.02E-08  1.07E-05  4.58E-06  8.10E-04  0.00E+00  0.00E+00  4.64E-06  8.21E-04  1.27E-02  0.98728
   1332.    7.508  3.74E-08  6.64E-06  4.58E-06  8.12E-04  0.00E+00  0.00E+00  4.62E-06  8.19E-04  1.27E-02  0.99206
   1334.    7.496  4.56E-08  8.12E-06  4.55E-06  8.09E-04  0.00E+00  0.00E+00  4.59E-06  8.17E-04  1.27E-02  0.99025
   1336.    7.485  3.91E-07  6.98E-05  4.19E-06  7.47E-04  0.00E+00  0.00E+00  4.58E-06  8.17E-04  1.28E-02  0.91595
   1338.    7.474  1.11E-06  1.99E-04  3.46E-06  6.19E-04  0.00E+00  0.00E+00  4.57E-06  8.18E-04  1.28E-02  0.75989
   1340.    7.463  1.35E-06  2.42E-04  3.20E-06  5.75E-04  0.00E+00  0.00E+00  4.55E-06  8.17E-04  1.28E-02  0.70866
   1342.    7.452  3.92E-07  7.05E-05  4.11E-06  7.41E-04  0.00E+00  0.00E+00  4.51E-06  8.12E-04  1.28E-02  0.91502
   1344.    7.440  4.46E-08  8.05E-06  4.43E-06  8.01E-04  0.00E+00  0.00E+00  4.48E-06  8.09E-04  1.28E-02  0.99025
   1346.    7.429  3.47E-08  6.28E-06  4.42E-06  8.01E-04  0.00E+00  0.00E+00  4.45E-06  8.07E-04  1.28E-02  0.99237
   1348.    7.418  1.40E-07  2.54E-05  4.29E-06  7.80E-04  0.00E+00  0.00E+00  4.43E-06  8.05E-04  1.28E-02  0.96902
   1350.    7.407  1.51E-07  2.76E-05  4.26E-06  7.76E-04  0.00E+00  0.00E+00  4.41E-06  8.04E-04  1.28E-02  0.96643
   1352.    7.396  5.17E-08  9.46E-06  4.33E-06  7.92E-04  0.00E+00  0.00E+00  4.38E-06  8.02E-04  1.28E-02  0.98843
   1354.    7.386  2.15E-07  3.95E-05  4.15E-06  7.61E-04  0.00E+00  0.00E+00  4.37E-06  8.00E-04  1.28E-02  0.95155
   1356.    7.375  2.35E-07  4.32E-05  4.11E-06  7.55E-04  0.00E+00  0.00E+00  4.34E-06  7.99E-04  1.28E-02  0.94703
   1358.    7.364  1.49E-07  2.74E-05  4.17E-06  7.69E-04  0.00E+00  0.00E+00  4.32E-06  7.97E-04  1.28E-02  0.96621
   1360.    7.353  5.09E-07  9.42E-05  3.79E-06  7.02E-04  0.00E+00  0.00E+00  4.30E-06  7.96E-04  1.29E-02  0.88357
   1362.    7.342  1.24E-06  2.30E-04  3.06E-06  5.67E-04  0.00E+00  0.00E+00  4.30E-06  7.97E-04  1.29E-02  0.71582
   1364.    7.331  8.84E-07  1.65E-04  3.38E-06  6.29E-04  0.00E+00  0.00E+00  4.27E-06  7.94E-04  1.29E-02  0.79647
   1366.    7.321  1.30E-07  2.42E-05  4.10E-06  7.65E-04  0.00E+00  0.00E+00  4.23E-06  7.89E-04  1.29E-02  0.96999
   1368.    7.310  3.82E-07  7.15E-05  3.83E-06  7.17E-04  0.00E+00  0.00E+00  4.21E-06  7.88E-04  1.29E-02  0.91073
   1370.    7.299  4.09E-07  7.68E-05  3.78E-06  7.10E-04  0.00E+00  0.00E+00  4.19E-06  7.87E-04  1.29E-02  0.90426
   1372.    7.289  5.06E-07  9.52E-05  3.67E-06  6.90E-04  0.00E+00  0.00E+00  4.17E-06  7.85E-04  1.29E-02  0.88055
   1374.    7.278  1.26E-06  2.37E-04  2.91E-06  5.49E-04  0.00E+00  0.00E+00  4.16E-06  7.86E-04  1.29E-02  0.70207
   1376.    7.267  8.35E-07  1.58E-04  3.30E-06  6.25E-04  0.00E+00  0.00E+00  4.13E-06  7.83E-04  1.29E-02  0.80156
   1378.    7.257  4.15E-07  7.88E-05  3.69E-06  7.01E-04  0.00E+00  0.00E+00  4.10E-06  7.79E-04  1.29E-02  0.90073
   1380.    7.246  2.97E-07  5.66E-05  3.78E-06  7.21E-04  0.00E+00  0.00E+00  4.08E-06  7.77E-04  1.29E-02  0.92862
   1382.    7.236  1.30E-07  2.48E-05  3.93E-06  7.50E-04  0.00E+00  0.00E+00  4.06E-06  7.75E-04  1.29E-02  0.96864
   1384.    7.225  1.81E-07  3.47E-05  3.85E-06  7.38E-04  0.00E+00  0.00E+00  4.04E-06  7.73E-04  1.30E-02  0.95590
   1386.    7.215  8.56E-07  1.64E-04  3.17E-06  6.09E-04  0.00E+00  0.00E+00  4.03E-06  7.74E-04  1.30E-02  0.79033
   1388.    7.205  1.32E-06  2.53E-04  2.70E-06  5.20E-04  0.00E+00  0.00E+00  4.02E-06  7.74E-04  1.30E-02  0.67704
   1390.    7.194  5.12E-07  9.89E-05  3.47E-06  6.70E-04  0.00E+00  0.00E+00  3.98E-06  7.69E-04  1.30E-02  0.87397
   1392.    7.184  5.46E-07  1.06E-04  3.41E-06  6.61E-04  0.00E+00  0.00E+00  3.96E-06  7.67E-04  1.30E-02  0.86391
   1394.    7.174  1.55E-06  3.02E-04  2.41E-06  4.67E-04  0.00E+00  0.00E+00  3.96E-06  7.69E-04  1.30E-02  0.61223
   1396.    7.163  1.40E-06  2.73E-04  2.53E-06  4.94E-04  0.00E+00  0.00E+00  3.93E-06  7.67E-04  1.30E-02  0.64908
   1398.    7.153  1.34E-06  2.62E-04  2.57E-06  5.02E-04  0.00E+00  0.00E+00  3.91E-06  7.65E-04  1.30E-02  0.66116
   1400.    7.143  1.04E-06  2.04E-04  2.84E-06  5.57E-04  0.00E+00  0.00E+00  3.89E-06  7.62E-04  1.30E-02  0.73634
  iv         1405
1                                             RADIANCE(WATTS/CM2-STER-XXX)
0  FREQ   WAVLEN    PATH THERMAL      SURFACE EMISSION    SURFACE REFLECTED     TOTAL RADIANCE   INTEGRAL    TOTAL
  (CM-1) (MICRN)    (CM-1)   (MICRN)    (CM-1)   (MICRN)    (CM-1)   (MICRN)    (CM-1)   (MICRN)    (CM-1)   TRANS

   1402.    7.133  2.92E-07  5.74E-05  3.56E-06  6.99E-04  0.00E+00  0.00E+00  3.85E-06  7.57E-04  1.30E-02  0.92557
   1404.    7.123  7.06E-07  1.39E-04  3.13E-06  6.17E-04  0.00E+00  0.00E+00  3.84E-06  7.56E-04  1.30E-02  0.81884
   1406.    7.112  5.85E-07  1.16E-04  3.23E-06  6.39E-04  0.00E+00  0.00E+00  3.81E-06  7.54E-04  1.30E-02  0.84967
   1408.    7.102  1.38E-07  2.73E-05  3.65E-06  7.23E-04  0.00E+00  0.00E+00  3.79E-06  7.51E-04  1.31E-02  0.96426
   1410.    7.092  2.88E-07  5.73E-05  3.48E-06  6.92E-04  0.00E+00  0.00E+00  3.77E-06  7.49E-04  1.31E-02  0.92479
   1412.    7.082  3.58E-07  7.14E-05  3.39E-06  6.76E-04  0.00E+00  0.00E+00  3.75E-06  7.48E-04  1.31E-02  0.90626
   1414.    7.072  2.68E-07  5.36E-05  3.46E-06  6.92E-04  0.00E+00  0.00E+00  3.73E-06  7.45E-04  1.31E-02  0.92938
   1416.    7.062  8.32E-07  1.67E-04  2.89E-06  5.79E-04  0.00E+00  0.00E+00  3.72E-06  7.46E-04  1.31E-02  0.77952
   1418.    7.052  1.78E-06  3.58E-04  1.94E-06  3.89E-04  0.00E+00  0.00E+00  3.72E-06  7.48E-04  1.31E-02  0.52516
   1420.    7.042  1.87E-06  3.77E-04  1.83E-06  3.69E-04  0.00E+00  0.00E+00  3.70E-06  7.46E-04  1.31E-02  0.50004
   1422.    7.032  8.44E-07  1.71E-04  2.82E-06  5.69E-04  0.00E+00  0.00E+00  3.66E-06  7.40E-04  1.31E-02  0.77297
   1424.    7.022  9.31E-07  1.89E-04  2.71E-06  5.50E-04  0.00E+00  0.00E+00  3.64E-06  7.39E-04  1.31E-02  0.74823
   1426.    7.013  4.49E-07  9.13E-05  3.16E-06  6.43E-04  0.00E+00  0.00E+00  3.61E-06  7.35E-04  1.31E-02  0.87819
   1428.    7.003  5.58E-07  1.14E-04  3.04E-06  6.19E-04  0.00E+00  0.00E+00  3.60E-06  7.33E-04  1.31E-02  0.84698
   1430.    6.993  9.41E-07  1.93E-04  2.64E-06  5.40E-04  0.00E+00  0.00E+00  3.58E-06  7.33E-04  1.31E-02  0.74128
   1432.    6.983  6.17E-07  1.26E-04  2.94E-06  6.03E-04  0.00E+00  0.00E+00  3.56E-06  7.30E-04  1.31E-02  0.82979
   1434.    6.974  7.32E-07  1.51E-04  2.81E-06  5.78E-04  0.00E+00  0.00E+00  3.54E-06  7.28E-04  1.31E-02  0.79613
   1436.    6.964  1.84E-06  3.79E-04  1.71E-06  3.52E-04  0.00E+00  0.00E+00  3.54E-06  7.31E-04  1.32E-02  0.48648
   1438.    6.954  1.30E-06  2.69E-04  2.21E-06  4.58E-04  0.00E+00  0.00E+00  3.51E-06  7.27E-04  1.32E-02  0.63571
   1440.    6.944  2.18E-07  4.51E-05  3.26E-06  6.75E-04  0.00E+00  0.00E+00  3.47E-06  7.20E-04  1.32E-02  0.93867
   1442.    6.935  1.20E-07  2.50E-05  3.33E-06  6.93E-04  0.00E+00  0.00E+00  3.45E-06  7.18E-04  1.32E-02  0.96586
   1444.    6.925  1.56E-07  3.25E-05  3.28E-06  6.84E-04  0.00E+00  0.00E+00  3.44E-06  7.16E-04  1.32E-02  0.95544
   1446.    6.916  5.79E-07  1.21E-04  2.85E-06  5.95E-04  0.00E+00  0.00E+00  3.43E-06  7.16E-04  1.32E-02  0.83341
   1448.    6.906  9.75E-07  2.04E-04  2.44E-06  5.11E-04  0.00E+00  0.00E+00  3.41E-06  7.16E-04  1.32E-02  0.71861
   1450.    6.897  5.26E-07  1.11E-04  2.86E-06  6.01E-04  0.00E+00  0.00E+00  3.39E-06  7.12E-04  1.32E-02  0.84734
   1452.    6.887  5.96E-07  1.26E-04  2.77E-06  5.85E-04  0.00E+00  0.00E+00  3.37E-06  7.10E-04  1.32E-02  0.82601
   1454.    6.878  1.05E-06  2.23E-04  2.31E-06  4.88E-04  0.00E+00  0.00E+00  3.36E-06  7.10E-04  1.32E-02  0.69011
   1456.    6.868  2.33E-06  4.93E-04  1.04E-06  2.21E-04  0.00E+00  0.00E+00  3.37E-06  7.14E-04  1.32E-02  0.31308
   1458.    6.859  2.47E-06  5.26E-04  8.80E-07  1.87E-04  0.00E+00  0.00E+00  3.35E-06  7.13E-04  1.32E-02  0.26688
   1460.    6.849  1.13E-06  2.42E-04  2.17E-06  4.63E-04  0.00E+00  0.00E+00  3.31E-06  7.05E-04  1.32E-02  0.66247
   1462.    6.840  4.65E-07  9.94E-05  2.81E-06  6.01E-04  0.00E+00  0.00E+00  3.28E-06  7.00E-04  1.32E-02  0.86041
   1464.    6.831  1.19E-06  2.56E-04  2.08E-06  4.46E-04  0.00E+00  0.00E+00  3.27E-06  7.01E-04  1.32E-02  0.63969
   1466.    6.821  9.76E-07  2.10E-04  2.27E-06  4.89E-04  0.00E+00  0.00E+00  3.25E-06  6.99E-04  1.33E-02  0.70463
   1468.    6.812  2.89E-07  6.23E-05  2.93E-06  6.31E-04  0.00E+00  0.00E+00  3.22E-06  6.94E-04  1.33E-02  0.91191
   1470.    6.803  7.31E-07  1.58E-04  2.48E-06  5.36E-04  0.00E+00  0.00E+00  3.21E-06  6.94E-04  1.33E-02  0.77513
   1472.    6.793  1.92E-06  4.16E-04  1.29E-06  2.81E-04  0.00E+00  0.00E+00  3.22E-06  6.97E-04  1.33E-02  0.40680
   1474.    6.784  2.04E-06  4.43E-04  1.16E-06  2.52E-04  0.00E+00  0.00E+00  3.20E-06  6.96E-04  1.33E-02  0.36788
   1476.    6.775  1.44E-06  3.15E-04  1.73E-06  3.76E-04  0.00E+00  0.00E+00  3.17E-06  6.91E-04  1.33E-02  0.54990
   1478.    6.766  5.99E-07  1.31E-04  2.54E-06  5.55E-04  0.00E+00  0.00E+00  3.14E-06  6.85E-04  1.33E-02  0.81287
   1480.    6.757  4.30E-07  9.43E-05  2.69E-06  5.89E-04  0.00E+00  0.00E+00  3.12E-06  6.83E-04  1.33E-02  0.86411
   1482.    6.748  4.66E-07  1.02E-04  2.63E-06  5.79E-04  0.00E+00  0.00E+00  3.10E-06  6.81E-04  1.33E-02  0.85259
   1484.    6.739  2.87E-07  6.32E-05  2.79E-06  6.15E-04  0.00E+00  0.00E+00  3.08E-06  6.78E-04  1.33E-02  0.90844
   1486.    6.729  9.11E-07  2.01E-04  2.16E-06  4.78E-04  0.00E+00  0.00E+00  3.08E-06  6.79E-04  1.33E-02  0.70728
   1488.    6.720  1.52E-06  3.37E-04  1.55E-06  3.42E-04  0.00E+00  0.00E+00  3.07E-06  6.80E-04  1.33E-02  0.50839
   1490.    6.711  1.77E-06  3.93E-04  1.29E-06  2.86E-04  0.00E+00  0.00E+00  3.06E-06  6.79E-04  1.33E-02  0.42686
   1492.    6.702  9.46E-07  2.11E-04  2.08E-06  4.63E-04  0.00E+00  0.00E+00  3.03E-06  6.73E-04  1.33E-02  0.69238
   1494.    6.693  6.35E-07  1.42E-04  2.37E-06  5.28E-04  0.00E+00  0.00E+00  3.00E-06  6.70E-04  1.33E-02  0.79142
   1496.    6.684  1.55E-06  3.47E-04  1.46E-06  3.26E-04  0.00E+00  0.00E+00  3.00E-06  6.72E-04  1.33E-02  0.48907
   1498.    6.676  1.69E-06  3.78E-04  1.30E-06  2.93E-04  0.00E+00  0.00E+00  2.99E-06  6.71E-04  1.34E-02  0.44135
   1500.    6.667  1.10E-06  2.48E-04  1.86E-06  4.19E-04  0.00E+00  0.00E+00  2.96E-06  6.66E-04  1.34E-02  0.63323
  iv         1505
1                                             RADIANCE(WATTS/CM2-STER-XXX)
0  FREQ   WAVLEN    PATH THERMAL      SURFACE EMISSION    SURFACE REFLECTED     TOTAL RADIANCE   INTEGRAL    TOTAL
  (CM-1) (MICRN)    (CM-1)   (MICRN)    (CM-1)   (MICRN)    (CM-1)   (MICRN)    (CM-1)   (MICRN)    (CM-1)   TRANS

   1502.    6.658  7.02E-07  1.58E-04  2.24E-06  5.04E-04  0.00E+00  0.00E+00  2.94E-06  6.63E-04  1.34E-02  0.76469
   1504.    6.649  1.20E-06  2.72E-04  1.73E-06  3.91E-04  0.00E+00  0.00E+00  2.93E-06  6.63E-04  1.34E-02  0.59364
   1506.    6.640  2.39E-06  5.41E-04  5.53E-07  1.25E-04  0.00E+00  0.00E+00  2.94E-06  6.66E-04  1.34E-02  0.19076
   1508.    6.631  2.49E-06  5.66E-04  4.36E-07  9.93E-05  0.00E+00  0.00E+00  2.92E-06  6.65E-04  1.34E-02  0.15213
   1510.    6.623  1.92E-06  4.37E-04  9.79E-07  2.23E-04  0.00E+00  0.00E+00  2.90E-06  6.60E-04  1.34E-02  0.34271
   1512.    6.614  1.42E-06  3.25E-04  1.45E-06  3.31E-04  0.00E+00  0.00E+00  2.87E-06  6.56E-04  1.34E-02  0.50998
   1514.    6.605  1.17E-06  2.68E-04  1.68E-06  3.85E-04  0.00E+00  0.00E+00  2.85E-06  6.53E-04  1.34E-02  0.59440
   1516.    6.596  1.72E-06  3.96E-04  1.12E-06  2.57E-04  0.00E+00  0.00E+00  2.84E-06  6.54E-04  1.34E-02  0.39813
   1518.    6.588  1.72E-06  3.96E-04  1.11E-06  2.56E-04  0.00E+00  0.00E+00  2.83E-06  6.52E-04  1.34E-02  0.39824
   1520.    6.579  1.98E-06  4.58E-04  8.35E-07  1.93E-04  0.00E+00  0.00E+00  2.82E-06  6.51E-04  1.34E-02  0.29979
   1522.    6.570  2.22E-06  5.14E-04  5.88E-07  1.36E-04  0.00E+00  0.00E+00  2.81E-06  6.50E-04  1.34E-02  0.21335
   1524.    6.562  1.73E-06  4.03E-04  1.05E-06  2.43E-04  0.00E+00  0.00E+00  2.78E-06  6.46E-04  1.34E-02  0.38158
   1526.    6.553  1.49E-06  3.48E-04  1.27E-06  2.95E-04  0.00E+00  0.00E+00  2.76E-06  6.43E-04  1.34E-02  0.46427
   1528.    6.545  1.17E-06  2.74E-04  1.57E-06  3.66E-04  0.00E+00  0.00E+00  2.74E-06  6.40E-04  1.34E-02  0.57725
   1530.    6.536  8.28E-07  1.94E-04  1.89E-06  4.42E-04  0.00E+00  0.00E+00  2.72E-06  6.36E-04  1.34E-02  0.69977
   1532.    6.527  1.32E-06  3.11E-04  1.39E-06  3.26E-04  0.00E+00  0.00E+00  2.71E-06  6.37E-04  1.35E-02  0.51604
   1534.    6.519  1.63E-06  3.83E-04  1.08E-06  2.53E-04  0.00E+00  0.00E+00  2.70E-06  6.36E-04  1.35E-02  0.40303
   1536.    6.510  9.65E-07  2.28E-04  1.71E-06  4.03E-04  0.00E+00  0.00E+00  2.67E-06  6.31E-04  1.35E-02  0.64388
   1538.    6.502  1.63E-06  3.86E-04  1.04E-06  2.47E-04  0.00E+00  0.00E+00  2.67E-06  6.32E-04  1.35E-02  0.39381
   1540.    6.494  2.40E-06  5.68E-04  2.77E-07  6.57E-05  0.00E+00  0.00E+00  2.67E-06  6.34E-04  1.35E-02  0.10545
   1542.    6.485  2.20E-06  5.23E-04  4.53E-07  1.08E-04  0.00E+00  0.00E+00  2.65E-06  6.31E-04  1.35E-02  0.17401
   1544.    6.477  1.73E-06  4.13E-04  8.98E-07  2.14E-04  0.00E+00  0.00E+00  2.63E-06  6.27E-04  1.35E-02  0.34612
   1546.    6.468  1.16E-06  2.77E-04  1.44E-06  3.45E-04  0.00E+00  0.00E+00  2.60E-06  6.22E-04  1.35E-02  0.55962
   1548.    6.460  6.84E-07  1.64E-04  1.90E-06  4.54E-04  0.00E+00  0.00E+00  2.58E-06  6.18E-04  1.35E-02  0.73873
   1550.    6.452  9.85E-07  2.37E-04  1.59E-06  3.81E-04  0.00E+00  0.00E+00  2.57E-06  6.18E-04  1.35E-02  0.62153
   1552.    6.443  8.89E-07  2.14E-04  1.67E-06  4.01E-04  0.00E+00  0.00E+00  2.55E-06  6.15E-04  1.35E-02  0.65643
   1554.    6.435  1.35E-06  3.26E-04  1.20E-06  2.90E-04  0.00E+00  0.00E+00  2.55E-06  6.15E-04  1.35E-02  0.47548
   1556.    6.427  1.61E-06  3.89E-04  9.32E-07  2.26E-04  0.00E+00  0.00E+00  2.54E-06  6.15E-04  1.35E-02  0.37131
   1558.    6.418  2.19E-06  5.31E-04  3.49E-07  8.48E-05  0.00E+00  0.00E+00  2.54E-06  6.16E-04  1.35E-02  0.13961
   1560.    6.410  2.15E-06  5.23E-04  3.72E-07  9.05E-05  0.00E+00  0.00E+00  2.52E-06  6.14E-04  1.35E-02  0.15052
   1562.    6.402  1.10E-06  2.69E-04  1.38E-06  3.38E-04  0.00E+00  0.00E+00  2.49E-06  6.07E-04  1.35E-02  0.56232
   1564.    6.394  7.59E-07  1.86E-04  1.71E-06  4.17E-04  0.00E+00  0.00E+00  2.47E-06  6.03E-04  1.35E-02  0.69604
   1566.    6.386  6.55E-07  1.61E-04  1.79E-06  4.40E-04  0.00E+00  0.00E+00  2.45E-06  6.01E-04  1.35E-02  0.73677
   1568.    6.378  9.09E-07  2.23E-04  1.53E-06  3.77E-04  0.00E+00  0.00E+00  2.44E-06  6.00E-04  1.35E-02  0.63146
   1570.    6.369  1.25E-06  3.08E-04  1.18E-06  2.92E-04  0.00E+00  0.00E+00  2.43E-06  6.00E-04  1.35E-02  0.49244
   1572.    6.361  5.38E-07  1.33E-04  1.87E-06  4.61E-04  0.00E+00  0.00E+00  2.40E-06  5.94E-04  1.36E-02  0.78026
   1574.    6.353  6.76E-07  1.67E-04  1.72E-06  4.26E-04  0.00E+00  0.00E+00  2.39E-06  5.93E-04  1.36E-02  0.72117
   1576.    6.345  1.51E-06  3.75E-04  8.86E-07  2.20E-04  0.00E+00  0.00E+00  2.40E-06  5.95E-04  1.36E-02  0.37381
   1578.    6.337  1.04E-06  2.59E-04  1.33E-06  3.32E-04  0.00E+00  0.00E+00  2.37E-06  5.91E-04  1.36E-02  0.56821
   1580.    6.329  2.56E-07  6.38E-05  2.09E-06  5.21E-04  0.00E+00  0.00E+00  2.34E-06  5.85E-04  1.36E-02  0.89314
   1582.    6.321  1.44E-07  3.61E-05  2.18E-06  5.47E-04  0.00E+00  0.00E+00  2.33E-06  5.83E-04  1.36E-02  0.93918
   1584.    6.313  1.09E-07  2.75E-05  2.21E-06  5.53E-04  0.00E+00  0.00E+00  2.31E-06  5.81E-04  1.36E-02  0.95364
   1586.    6.305  8.69E-08  2.18E-05  2.21E-06  5.57E-04  0.00E+00  0.00E+00  2.30E-06  5.79E-04  1.36E-02  0.96298
   1588.    6.297  1.13E-07  2.84E-05  2.17E-06  5.48E-04  0.00E+00  0.00E+00  2.29E-06  5.77E-04  1.36E-02  0.95156
   1590.    6.289  1.91E-07  4.84E-05  2.08E-06  5.27E-04  0.00E+00  0.00E+00  2.28E-06  5.75E-04  1.36E-02  0.91744
   1592.    6.281  2.33E-07  5.92E-05  2.03E-06  5.15E-04  0.00E+00  0.00E+00  2.26E-06  5.74E-04  1.36E-02  0.89863
   1594.    6.274  3.22E-07  8.19E-05  1.93E-06  4.90E-04  0.00E+00  0.00E+00  2.25E-06  5.72E-04  1.36E-02  0.85922
   1596.    6.266  2.54E-07  6.48E-05  1.98E-06  5.05E-04  0.00E+00  0.00E+00  2.24E-06  5.70E-04  1.36E-02  0.88855
   1598.    6.258  1.11E-07  2.84E-05  2.11E-06  5.39E-04  0.00E+00  0.00E+00  2.22E-06  5.67E-04  1.36E-02  0.95098
   1600.    6.250  1.42E-07  3.62E-05  2.07E-06  5.29E-04  0.00E+00  0.00E+00  2.21E-06  5.66E-04  1.36E-02  0.93701
  iv         1605
1                                             RADIANCE(WATTS/CM2-STER-XXX)
0  FREQ   WAVLEN    PATH THERMAL      SURFACE EMISSION    SURFACE REFLECTED     TOTAL RADIANCE   INTEGRAL    TOTAL
  (CM-1) (MICRN)    (CM-1)   (MICRN)    (CM-1)   (MICRN)    (CM-1)   (MICRN)    (CM-1)   (MICRN)    (CM-1)   TRANS

   1602.    6.242  2.75E-07  7.05E-05  1.92E-06  4.94E-04  0.00E+00  0.00E+00  2.20E-06  5.64E-04  1.36E-02  0.87719
   1604.    6.234  2.16E-07  5.56E-05  1.97E-06  5.07E-04  0.00E+00  0.00E+00  2.19E-06  5.62E-04  1.36E-02  0.90307
   1606.    6.227  2.31E-07  5.95E-05  1.94E-06  5.01E-04  0.00E+00  0.00E+00  2.17E-06  5.60E-04  1.36E-02  0.89547
   1608.    6.219  4.07E-07  1.05E-04  1.76E-06  4.54E-04  0.00E+00  0.00E+00  2.16E-06  5.59E-04  1.36E-02  0.81476
   1610.    6.211  3.10E-07  8.04E-05  1.84E-06  4.77E-04  0.00E+00  0.00E+00  2.15E-06  5.57E-04  1.36E-02  0.85831
   1612.    6.203  1.55E-07  4.02E-05  1.98E-06  5.14E-04  0.00E+00  0.00E+00  2.13E-06  5.54E-04  1.36E-02  0.92878
   1614.    6.196  3.96E-07  1.03E-04  1.73E-06  4.51E-04  0.00E+00  0.00E+00  2.13E-06  5.54E-04  1.36E-02  0.81623
   1616.    6.188  1.19E-06  3.11E-04  9.38E-07  2.45E-04  0.00E+00  0.00E+00  2.13E-06  5.56E-04  1.37E-02  0.44483
   1618.    6.180  9.51E-07  2.49E-04  1.16E-06  3.04E-04  0.00E+00  0.00E+00  2.11E-06  5.53E-04  1.37E-02  0.55570
   1620.    6.173  3.30E-07  8.67E-05  1.76E-06  4.61E-04  0.00E+00  0.00E+00  2.09E-06  5.48E-04  1.37E-02  0.84455
   1622.    6.165  6.56E-07  1.73E-04  1.43E-06  3.75E-04  0.00E+00  0.00E+00  2.08E-06  5.48E-04  1.37E-02  0.68855
   1624.    6.158  9.41E-07  2.48E-04  1.13E-06  2.99E-04  0.00E+00  0.00E+00  2.08E-06  5.47E-04  1.37E-02  0.55167
   1626.    6.150  6.10E-07  1.61E-04  1.45E-06  3.82E-04  0.00E+00  0.00E+00  2.06E-06  5.44E-04  1.37E-02  0.70772
   1628.    6.143  6.50E-07  1.72E-04  1.39E-06  3.70E-04  0.00E+00  0.00E+00  2.05E-06  5.42E-04  1.37E-02  0.68650
   1630.    6.135  3.02E-07  8.02E-05  1.72E-06  4.58E-04  0.00E+00  0.00E+00  2.03E-06  5.38E-04  1.37E-02  0.85387
   1632.    6.127  2.63E-07  7.02E-05  1.75E-06  4.66E-04  0.00E+00  0.00E+00  2.01E-06  5.36E-04  1.37E-02  0.87118
   1634.    6.120  9.62E-07  2.57E-04  1.05E-06  2.81E-04  0.00E+00  0.00E+00  2.02E-06  5.38E-04  1.37E-02  0.52677
   1636.    6.112  1.43E-06  3.83E-04  5.82E-07  1.56E-04  0.00E+00  0.00E+00  2.01E-06  5.39E-04  1.37E-02  0.29342
   1638.    6.105  9.67E-07  2.59E-04  1.03E-06  2.75E-04  0.00E+00  0.00E+00  1.99E-06  5.34E-04  1.37E-02  0.52025
   1640.    6.098  4.64E-07  1.25E-04  1.51E-06  4.05E-04  0.00E+00  0.00E+00  1.97E-06  5.30E-04  1.37E-02  0.76832
   1642.    6.090  3.21E-07  8.66E-05  1.63E-06  4.41E-04  0.00E+00  0.00E+00  1.96E-06  5.27E-04  1.37E-02  0.83855
   1644.    6.083  6.86E-07  1.85E-04  1.27E-06  3.42E-04  0.00E+00  0.00E+00  1.95E-06  5.27E-04  1.37E-02  0.65249
   1646.    6.075  1.37E-06  3.72E-04  5.81E-07  1.57E-04  0.00E+00  0.00E+00  1.95E-06  5.29E-04  1.37E-02  0.30122
   1648.    6.068  1.20E-06  3.25E-04  7.43E-07  2.02E-04  0.00E+00  0.00E+00  1.94E-06  5.27E-04  1.37E-02  0.38860
   1650.    6.061  8.63E-07  2.35E-04  1.06E-06  2.88E-04  0.00E+00  0.00E+00  1.92E-06  5.23E-04  1.37E-02  0.55541
   1652.    6.053  1.47E-06  4.01E-04  4.51E-07  1.23E-04  0.00E+00  0.00E+00  1.92E-06  5.24E-04  1.37E-02  0.23775
   1654.    6.046  1.62E-06  4.43E-04  2.93E-07  8.02E-05  0.00E+00  0.00E+00  1.91E-06  5.23E-04  1.37E-02  0.15648
   1656.    6.039  8.31E-07  2.28E-04  1.06E-06  2.89E-04  0.00E+00  0.00E+00  1.89E-06  5.17E-04  1.37E-02  0.56531
   1658.    6.031  2.77E-07  7.61E-05  1.59E-06  4.36E-04  0.00E+00  0.00E+00  1.86E-06  5.12E-04  1.37E-02  0.85432
   1660.    6.024  3.19E-07  8.79E-05  1.53E-06  4.23E-04  0.00E+00  0.00E+00  1.85E-06  5.11E-04  1.37E-02  0.83047
   1662.    6.017  7.38E-07  2.04E-04  1.11E-06  3.07E-04  0.00E+00  0.00E+00  1.85E-06  5.11E-04  1.37E-02  0.60560
   1664.    6.010  5.62E-07  1.56E-04  1.27E-06  3.53E-04  0.00E+00  0.00E+00  1.84E-06  5.09E-04  1.37E-02  0.69899
   1666.    6.002  2.88E-07  8.00E-05  1.53E-06  4.25E-04  0.00E+00  0.00E+00  1.82E-06  5.05E-04  1.38E-02  0.84408
   1668.    5.995  8.47E-07  2.36E-04  9.73E-07  2.71E-04  0.00E+00  0.00E+00  1.82E-06  5.07E-04  1.38E-02  0.53875
   1670.    5.988  1.15E-06  3.21E-04  6.63E-07  1.85E-04  0.00E+00  0.00E+00  1.82E-06  5.06E-04  1.38E-02  0.37006
   1672.    5.981  8.30E-07  2.32E-04  9.69E-07  2.71E-04  0.00E+00  0.00E+00  1.80E-06  5.03E-04  1.38E-02  0.54422
   1674.    5.974  8.09E-07  2.27E-04  9.78E-07  2.74E-04  0.00E+00  0.00E+00  1.79E-06  5.01E-04  1.38E-02  0.55160
   1676.    5.967  9.56E-07  2.69E-04  8.24E-07  2.31E-04  0.00E+00  0.00E+00  1.78E-06  5.00E-04  1.38E-02  0.46827
   1678.    5.959  5.22E-07  1.47E-04  1.24E-06  3.49E-04  0.00E+00  0.00E+00  1.76E-06  4.96E-04  1.38E-02  0.70774
   1680.    5.952  6.31E-07  1.78E-04  1.12E-06  3.16E-04  0.00E+00  0.00E+00  1.75E-06  4.95E-04  1.38E-02  0.64423
   1682.    5.945  8.87E-07  2.51E-04  8.60E-07  2.43E-04  0.00E+00  0.00E+00  1.75E-06  4.94E-04  1.38E-02  0.49649
   1684.    5.938  1.37E-06  3.89E-04  3.76E-07  1.07E-04  0.00E+00  0.00E+00  1.75E-06  4.95E-04  1.38E-02  0.21846
   1686.    5.931  9.72E-07  2.76E-04  7.56E-07  2.15E-04  0.00E+00  0.00E+00  1.73E-06  4.91E-04  1.38E-02  0.44303
   1688.    5.924  6.41E-07  1.83E-04  1.07E-06  3.05E-04  0.00E+00  0.00E+00  1.71E-06  4.88E-04  1.38E-02  0.62997
   1690.    5.917  5.54E-07  1.58E-04  1.14E-06  3.27E-04  0.00E+00  0.00E+00  1.70E-06  4.85E-04  1.38E-02  0.67836
   1692.    5.910  3.41E-07  9.77E-05  1.34E-06  3.85E-04  0.00E+00  0.00E+00  1.68E-06  4.82E-04  1.38E-02  0.80076
   1694.    5.903  7.48E-07  2.15E-04  9.34E-07  2.68E-04  0.00E+00  0.00E+00  1.68E-06  4.83E-04  1.38E-02  0.55913
   1696.    5.896  1.18E-06  3.39E-04  5.02E-07  1.45E-04  0.00E+00  0.00E+00  1.68E-06  4.84E-04  1.38E-02  0.30325
   1698.    5.889  1.10E-06  3.17E-04  5.70E-07  1.64E-04  0.00E+00  0.00E+00  1.67E-06  4.81E-04  1.38E-02  0.34557
   1700.    5.882  1.34E-06  3.88E-04  3.20E-07  9.25E-05  0.00E+00  0.00E+00  1.66E-06  4.81E-04  1.38E-02  0.19551
  iv         1705
1                                             RADIANCE(WATTS/CM2-STER-XXX)
0  FREQ   WAVLEN    PATH THERMAL      SURFACE EMISSION    SURFACE REFLECTED     TOTAL RADIANCE   INTEGRAL    TOTAL
  (CM-1) (MICRN)    (CM-1)   (MICRN)    (CM-1)   (MICRN)    (CM-1)   (MICRN)    (CM-1)   (MICRN)    (CM-1)   TRANS

   1702.    5.875  9.75E-07  2.82E-04  6.72E-07  1.95E-04  0.00E+00  0.00E+00  1.65E-06  4.77E-04  1.38E-02  0.41368
   1704.    5.869  8.27E-07  2.40E-04  8.08E-07  2.34E-04  0.00E+00  0.00E+00  1.63E-06  4.75E-04  1.38E-02  0.49887
   1706.    5.862  8.56E-07  2.49E-04  7.69E-07  2.24E-04  0.00E+00  0.00E+00  1.62E-06  4.73E-04  1.38E-02  0.47853
   1708.    5.855  4.81E-07  1.40E-04  1.13E-06  3.29E-04  0.00E+00  0.00E+00  1.61E-06  4.69E-04  1.38E-02  0.70537
   1710.    5.848  3.55E-07  1.04E-04  1.24E-06  3.63E-04  0.00E+00  0.00E+00  1.60E-06  4.67E-04  1.38E-02  0.78082
   1712.    5.841  3.46E-07  1.01E-04  1.24E-06  3.63E-04  0.00E+00  0.00E+00  1.59E-06  4.65E-04  1.38E-02  0.78533
   1714.    5.834  7.14E-07  2.10E-04  8.70E-07  2.55E-04  0.00E+00  0.00E+00  1.58E-06  4.65E-04  1.38E-02  0.55350
   1716.    5.828  1.06E-06  3.12E-04  5.21E-07  1.54E-04  0.00E+00  0.00E+00  1.58E-06  4.65E-04  1.38E-02  0.33402
   1718.    5.821  1.12E-06  3.29E-04  4.57E-07  1.35E-04  0.00E+00  0.00E+00  1.57E-06  4.64E-04  1.38E-02  0.29492
   1720.    5.814  5.64E-07  1.67E-04  9.88E-07  2.92E-04  0.00E+00  0.00E+00  1.55E-06  4.59E-04  1.38E-02  0.64200
   1722.    5.807  2.72E-07  8.06E-05  1.27E-06  3.75E-04  0.00E+00  0.00E+00  1.54E-06  4.56E-04  1.38E-02  0.82599
   1724.    5.800  2.30E-07  6.84E-05  1.30E-06  3.85E-04  0.00E+00  0.00E+00  1.53E-06  4.54E-04  1.38E-02  0.85196
   1726.    5.794  1.07E-07  3.17E-05  1.41E-06  4.20E-04  0.00E+00  0.00E+00  1.51E-06  4.51E-04  1.39E-02  0.93097
   1728.    5.787  2.26E-07  6.75E-05  1.28E-06  3.83E-04  0.00E+00  0.00E+00  1.51E-06  4.50E-04  1.39E-02  0.85220
   1730.    5.780  5.23E-07  1.57E-04  9.82E-07  2.94E-04  0.00E+00  0.00E+00  1.50E-06  4.50E-04  1.39E-02  0.65675
   1732.    5.774  7.59E-07  2.28E-04  7.42E-07  2.22E-04  0.00E+00  0.00E+00  1.50E-06  4.50E-04  1.39E-02  0.49886
   1734.    5.767  1.08E-06  3.25E-04  4.18E-07  1.26E-04  0.00E+00  0.00E+00  1.50E-06  4.50E-04  1.39E-02  0.28313
   1736.    5.760  6.38E-07  1.92E-04  8.41E-07  2.54E-04  0.00E+00  0.00E+00  1.48E-06  4.46E-04  1.39E-02  0.57448
   1738.    5.754  5.11E-07  1.54E-04  9.57E-07  2.89E-04  0.00E+00  0.00E+00  1.47E-06  4.43E-04  1.39E-02  0.65588
   1740.    5.747  6.51E-07  1.97E-04  8.11E-07  2.46E-04  0.00E+00  0.00E+00  1.46E-06  4.43E-04  1.39E-02  0.56016
   1742.    5.741  4.64E-07  1.41E-04  9.86E-07  2.99E-04  0.00E+00  0.00E+00  1.45E-06  4.40E-04  1.39E-02  0.68437
   1744.    5.734  5.41E-07  1.65E-04  9.01E-07  2.74E-04  0.00E+00  0.00E+00  1.44E-06  4.39E-04  1.39E-02  0.62925
   1746.    5.727  5.19E-07  1.58E-04  9.14E-07  2.79E-04  0.00E+00  0.00E+00  1.43E-06  4.37E-04  1.39E-02  0.64223
   1748.    5.721  6.63E-07  2.03E-04  7.64E-07  2.33E-04  0.00E+00  0.00E+00  1.43E-06  4.36E-04  1.39E-02  0.54006
   1750.    5.714  7.17E-07  2.20E-04  7.02E-07  2.15E-04  0.00E+00  0.00E+00  1.42E-06  4.35E-04  1.39E-02  0.49954
   1752.    5.708  4.92E-07  1.51E-04  9.14E-07  2.80E-04  0.00E+00  0.00E+00  1.41E-06  4.32E-04  1.39E-02  0.65495
   1754.    5.701  1.75E-07  5.39E-05  1.22E-06  3.74E-04  0.00E+00  0.00E+00  1.39E-06  4.28E-04  1.39E-02  0.87630
   1756.    5.695  3.32E-07  1.02E-04  1.05E-06  3.25E-04  0.00E+00  0.00E+00  1.39E-06  4.27E-04  1.39E-02  0.76382
   1758.    5.688  3.34E-07  1.03E-04  1.04E-06  3.23E-04  0.00E+00  0.00E+00  1.38E-06  4.26E-04  1.39E-02  0.76170
   1760.    5.682  3.35E-07  1.04E-04  1.03E-06  3.20E-04  0.00E+00  0.00E+00  1.37E-06  4.24E-04  1.39E-02  0.75806
   1762.    5.675  5.02E-07  1.56E-04  8.62E-07  2.67E-04  0.00E+00  0.00E+00  1.36E-06  4.23E-04  1.39E-02  0.63655
   1764.    5.669  2.00E-07  6.23E-05  1.15E-06  3.58E-04  0.00E+00  0.00E+00  1.35E-06  4.20E-04  1.39E-02  0.85475
   1766.    5.663  1.83E-07  5.71E-05  1.16E-06  3.61E-04  0.00E+00  0.00E+00  1.34E-06  4.18E-04  1.39E-02  0.86536
   1768.    5.656  4.38E-07  1.37E-04  9.00E-07  2.81E-04  0.00E+00  0.00E+00  1.34E-06  4.18E-04  1.39E-02  0.67711
   1770.    5.650  5.36E-07  1.68E-04  7.95E-07  2.49E-04  0.00E+00  0.00E+00  1.33E-06  4.17E-04  1.39E-02  0.60204
   1772.    5.643  7.87E-07  2.47E-04  5.41E-07  1.70E-04  0.00E+00  0.00E+00  1.33E-06  4.17E-04  1.39E-02  0.41196
   1774.    5.637  5.28E-07  1.66E-04  7.86E-07  2.48E-04  0.00E+00  0.00E+00  1.31E-06  4.14E-04  1.39E-02  0.60362
   1776.    5.631  2.77E-07  8.74E-05  1.02E-06  3.23E-04  0.00E+00  0.00E+00  1.30E-06  4.11E-04  1.39E-02  0.79058
   1778.    5.624  1.83E-07  5.78E-05  1.11E-06  3.51E-04  0.00E+00  0.00E+00  1.29E-06  4.08E-04  1.39E-02  0.86091
   1780.    5.618  3.14E-07  9.96E-05  9.72E-07  3.08E-04  0.00E+00  0.00E+00  1.29E-06  4.08E-04  1.39E-02  0.75896
   1782.    5.612  2.63E-07  8.34E-05  1.01E-06  3.22E-04  0.00E+00  0.00E+00  1.28E-06  4.06E-04  1.39E-02  0.79795
   1784.    5.605  2.18E-07  6.92E-05  1.05E-06  3.35E-04  0.00E+00  0.00E+00  1.27E-06  4.04E-04  1.39E-02  0.83110
   1786.    5.599  1.83E-07  5.85E-05  1.08E-06  3.43E-04  0.00E+00  0.00E+00  1.26E-06  4.02E-04  1.39E-02  0.85724
   1788.    5.593  7.73E-08  2.47E-05  1.17E-06  3.75E-04  0.00E+00  0.00E+00  1.25E-06  4.00E-04  1.39E-02  0.93919
   1790.    5.587  3.12E-07  1.00E-04  9.35E-07  2.99E-04  0.00E+00  0.00E+00  1.25E-06  4.00E-04  1.39E-02  0.75264
   1792.    5.580  5.99E-07  1.92E-04  6.46E-07  2.07E-04  0.00E+00  0.00E+00  1.25E-06  4.00E-04  1.39E-02  0.52354
   1794.    5.574  4.34E-07  1.40E-04  8.00E-07  2.57E-04  0.00E+00  0.00E+00  1.23E-06  3.97E-04  1.39E-02  0.65317
   1796.    5.568  2.65E-07  8.55E-05  9.58E-07  3.09E-04  0.00E+00  0.00E+00  1.22E-06  3.95E-04  1.39E-02  0.78666
   1798.    5.562  2.27E-07  7.33E-05  9.88E-07  3.19E-04  0.00E+00  0.00E+00  1.21E-06  3.93E-04  1.39E-02  0.81635
   1800.    5.556  4.13E-07  1.34E-04  7.98E-07  2.59E-04  0.00E+00  0.00E+00  1.21E-06  3.92E-04  1.40E-02  0.66329
  iv         1805
1                                             RADIANCE(WATTS/CM2-STER-XXX)
0  FREQ   WAVLEN    PATH THERMAL      SURFACE EMISSION    SURFACE REFLECTED     TOTAL RADIANCE   INTEGRAL    TOTAL
  (CM-1) (MICRN)    (CM-1)   (MICRN)    (CM-1)   (MICRN)    (CM-1)   (MICRN)    (CM-1)   (MICRN)    (CM-1)   TRANS

   1802.    5.549  3.48E-07  1.13E-04  8.54E-07  2.77E-04  0.00E+00  0.00E+00  1.20E-06  3.90E-04  1.40E-02  0.71487
   1804.    5.543  1.07E-07  3.48E-05  1.08E-06  3.52E-04  0.00E+00  0.00E+00  1.19E-06  3.87E-04  1.40E-02  0.91203
   1806.    5.537  7.00E-08  2.28E-05  1.11E-06  3.63E-04  0.00E+00  0.00E+00  1.18E-06  3.85E-04  1.40E-02  0.94178
   1808.    5.531  1.22E-07  3.98E-05  1.05E-06  3.44E-04  0.00E+00  0.00E+00  1.18E-06  3.84E-04  1.40E-02  0.89814
   1810.    5.525  2.28E-07  7.47E-05  9.42E-07  3.09E-04  0.00E+00  0.00E+00  1.17E-06  3.83E-04  1.40E-02  0.80790
   1812.    5.519  2.24E-07  7.34E-05  9.39E-07  3.08E-04  0.00E+00  0.00E+00  1.16E-06  3.82E-04  1.40E-02  0.81120
   1814.    5.513  4.95E-08  1.63E-05  1.10E-06  3.63E-04  0.00E+00  0.00E+00  1.15E-06  3.79E-04  1.40E-02  0.95803
   1816.    5.507  6.43E-08  2.12E-05  1.08E-06  3.56E-04  0.00E+00  0.00E+00  1.14E-06  3.78E-04  1.40E-02  0.94473
   1818.    5.501  6.38E-08  2.11E-05  1.07E-06  3.55E-04  0.00E+00  0.00E+00  1.14E-06  3.76E-04  1.40E-02  0.94507
   1820.    5.495  2.03E-08  6.73E-06  1.11E-06  3.67E-04  0.00E+00  0.00E+00  1.13E-06  3.74E-04  1.40E-02  0.98236
   1822.    5.488  5.93E-08  1.97E-05  1.06E-06  3.53E-04  0.00E+00  0.00E+00  1.12E-06  3.73E-04  1.40E-02  0.94814
   1824.    5.482  2.54E-07  8.45E-05  8.66E-07  2.88E-04  0.00E+00  0.00E+00  1.12E-06  3.73E-04  1.40E-02  0.77618
   1826.    5.476  2.77E-07  9.22E-05  8.37E-07  2.79E-04  0.00E+00  0.00E+00  1.11E-06  3.71E-04  1.40E-02  0.75573
   1828.    5.470  2.55E-07  8.53E-05  8.51E-07  2.84E-04  0.00E+00  0.00E+00  1.11E-06  3.70E-04  1.40E-02  0.77213
   1830.    5.464  4.36E-07  1.46E-04  6.67E-07  2.23E-04  0.00E+00  0.00E+00  1.10E-06  3.69E-04  1.40E-02  0.60996
   1832.    5.459  1.94E-07  6.51E-05  8.97E-07  3.01E-04  0.00E+00  0.00E+00  1.09E-06  3.66E-04  1.40E-02  0.82580
   1834.    5.453  5.04E-08  1.70E-05  1.03E-06  3.47E-04  0.00E+00  0.00E+00  1.08E-06  3.64E-04  1.40E-02  0.95434
   1836.    5.447  9.14E-08  3.08E-05  9.84E-07  3.32E-04  0.00E+00  0.00E+00  1.08E-06  3.63E-04  1.40E-02  0.91640
   1838.    5.441  9.48E-08  3.20E-05  9.74E-07  3.29E-04  0.00E+00  0.00E+00  1.07E-06  3.61E-04  1.40E-02  0.91309
   1840.    5.435  4.70E-08  1.59E-05  1.01E-06  3.43E-04  0.00E+00  0.00E+00  1.06E-06  3.59E-04  1.40E-02  0.95643
   1842.    5.429  2.14E-07  7.24E-05  8.44E-07  2.86E-04  0.00E+00  0.00E+00  1.06E-06  3.59E-04  1.40E-02  0.80067
   1844.    5.423  4.74E-07  1.61E-04  5.82E-07  1.98E-04  0.00E+00  0.00E+00  1.06E-06  3.59E-04  1.40E-02  0.55569
   1846.    5.417  3.08E-07  1.05E-04  7.39E-07  2.52E-04  0.00E+00  0.00E+00  1.05E-06  3.57E-04  1.40E-02  0.71080
   1848.    5.411  1.65E-07  5.63E-05  8.72E-07  2.98E-04  0.00E+00  0.00E+00  1.04E-06  3.54E-04  1.40E-02  0.84372
   1850.    5.405  6.10E-08  2.09E-05  9.67E-07  3.31E-04  0.00E+00  0.00E+00  1.03E-06  3.52E-04  1.40E-02  0.94198
   1852.    5.400  1.51E-08  5.17E-06  1.01E-06  3.45E-04  0.00E+00  0.00E+00  1.02E-06  3.50E-04  1.40E-02  0.98553
   1854.    5.394  1.06E-08  3.66E-06  1.00E-06  3.45E-04  0.00E+00  0.00E+00  1.01E-06  3.49E-04  1.40E-02  0.98973
   1856.    5.388  1.10E-08  3.78E-06  9.97E-07  3.43E-04  0.00E+00  0.00E+00  1.01E-06  3.47E-04  1.40E-02  0.98932
   1858.    5.382  3.33E-08  1.15E-05  9.68E-07  3.34E-04  0.00E+00  0.00E+00  1.00E-06  3.46E-04  1.40E-02  0.96732
   1860.    5.376  4.60E-08  1.59E-05  9.50E-07  3.29E-04  0.00E+00  0.00E+00  9.96E-07  3.44E-04  1.40E-02  0.95473
   1862.    5.371  3.68E-08  1.28E-05  9.52E-07  3.30E-04  0.00E+00  0.00E+00  9.89E-07  3.43E-04  1.40E-02  0.96352
   1864.    5.365  5.26E-08  1.83E-05  9.31E-07  3.23E-04  0.00E+00  0.00E+00  9.83E-07  3.42E-04  1.40E-02  0.94735
   1866.    5.359  1.81E-07  6.30E-05  7.99E-07  2.78E-04  0.00E+00  0.00E+00  9.79E-07  3.41E-04  1.40E-02  0.81800
   1868.    5.353  3.86E-07  1.35E-04  5.92E-07  2.06E-04  0.00E+00  0.00E+00  9.77E-07  3.41E-04  1.40E-02  0.60995
   1870.    5.348  2.94E-07  1.03E-04  6.75E-07  2.36E-04  0.00E+00  0.00E+00  9.69E-07  3.39E-04  1.40E-02  0.70146
   1872.    5.342  6.12E-08  2.15E-05  8.97E-07  3.14E-04  0.00E+00  0.00E+00  9.59E-07  3.36E-04  1.40E-02  0.93755
   1874.    5.336  8.12E-09  2.85E-06  9.43E-07  3.31E-04  0.00E+00  0.00E+00  9.51E-07  3.34E-04  1.40E-02  0.99164
   1876.    5.330  7.11E-09  2.50E-06  9.38E-07  3.30E-04  0.00E+00  0.00E+00  9.45E-07  3.33E-04  1.40E-02  0.99262
   1878.    5.325  1.28E-08  4.50E-06  9.27E-07  3.27E-04  0.00E+00  0.00E+00  9.39E-07  3.31E-04  1.40E-02  0.98666
   1880.    5.319  1.27E-08  4.51E-06  9.21E-07  3.25E-04  0.00E+00  0.00E+00  9.33E-07  3.30E-04  1.40E-02  0.98663
   1882.    5.313  6.49E-09  2.30E-06  9.21E-07  3.26E-04  0.00E+00  0.00E+00  9.27E-07  3.28E-04  1.40E-02  0.99314
   1884.    5.308  3.17E-08  1.13E-05  8.90E-07  3.16E-04  0.00E+00  0.00E+00  9.22E-07  3.27E-04  1.40E-02  0.96615
   1886.    5.302  3.27E-08  1.16E-05  8.83E-07  3.14E-04  0.00E+00  0.00E+00  9.16E-07  3.26E-04  1.40E-02  0.96505
   1888.    5.297  8.37E-08  2.99E-05  8.27E-07  2.95E-04  0.00E+00  0.00E+00  9.11E-07  3.25E-04  1.40E-02  0.90934
   1890.    5.291  1.82E-07  6.50E-05  7.25E-07  2.59E-04  0.00E+00  0.00E+00  9.07E-07  3.24E-04  1.40E-02  0.80278
   1892.    5.285  6.53E-08  2.34E-05  8.34E-07  2.99E-04  0.00E+00  0.00E+00  8.99E-07  3.22E-04  1.40E-02  0.92908
   1894.    5.280  7.83E-08  2.81E-05  8.15E-07  2.92E-04  0.00E+00  0.00E+00  8.94E-07  3.21E-04  1.40E-02  0.91370
   1896.    5.274  8.08E-08  2.90E-05  8.07E-07  2.90E-04  0.00E+00  0.00E+00  8.88E-07  3.19E-04  1.41E-02  0.91092
   1898.    5.269  1.14E-08  4.11E-06  8.70E-07  3.13E-04  0.00E+00  0.00E+00  8.81E-07  3.17E-04  1.41E-02  0.98734
   1900.    5.263  6.00E-09  2.17E-06  8.69E-07  3.14E-04  0.00E+00  0.00E+00  8.75E-07  3.16E-04  1.41E-02  0.99327
  iv         1905
1                                             RADIANCE(WATTS/CM2-STER-XXX)
0  FREQ   WAVLEN    PATH THERMAL      SURFACE EMISSION    SURFACE REFLECTED     TOTAL RADIANCE   INTEGRAL    TOTAL
  (CM-1) (MICRN)    (CM-1)   (MICRN)    (CM-1)   (MICRN)    (CM-1)   (MICRN)    (CM-1)   (MICRN)    (CM-1)   TRANS

   1902.    5.258  1.38E-08  4.98E-06  8.56E-07  3.10E-04  0.00E+00  0.00E+00  8.70E-07  3.15E-04  1.41E-02  0.98444
   1904.    5.252  2.06E-08  7.48E-06  8.44E-07  3.06E-04  0.00E+00  0.00E+00  8.64E-07  3.13E-04  1.41E-02  0.97661
   1906.    5.247  3.13E-08  1.14E-05  8.28E-07  3.01E-04  0.00E+00  0.00E+00  8.59E-07  3.12E-04  1.41E-02  0.96414
   1908.    5.241  9.26E-08  3.37E-05  7.62E-07  2.77E-04  0.00E+00  0.00E+00  8.55E-07  3.11E-04  1.41E-02  0.89340
   1910.    5.236  1.05E-07  3.81E-05  7.45E-07  2.72E-04  0.00E+00  0.00E+00  8.49E-07  3.10E-04  1.41E-02  0.87925
   1912.    5.230  3.10E-08  1.13E-05  8.11E-07  2.97E-04  0.00E+00  0.00E+00  8.42E-07  3.08E-04  1.41E-02  0.96409
   1914.    5.225  7.70E-09  2.82E-06  8.29E-07  3.04E-04  0.00E+00  0.00E+00  8.37E-07  3.06E-04  1.41E-02  0.99097
   1916.    5.219  6.88E-08  2.52E-05  7.64E-07  2.80E-04  0.00E+00  0.00E+00  8.32E-07  3.06E-04  1.41E-02  0.91845
   1918.    5.214  2.00E-07  7.37E-05  6.29E-07  2.31E-04  0.00E+00  0.00E+00  8.30E-07  3.05E-04  1.41E-02  0.76205
   1920.    5.208  1.10E-07  4.04E-05  7.13E-07  2.63E-04  0.00E+00  0.00E+00  8.22E-07  3.03E-04  1.41E-02  0.86943
   1922.    5.203  1.32E-07  4.87E-05  6.86E-07  2.53E-04  0.00E+00  0.00E+00  8.18E-07  3.02E-04  1.41E-02  0.84116
   1924.    5.198  1.00E-07  3.71E-05  7.11E-07  2.63E-04  0.00E+00  0.00E+00  8.12E-07  3.00E-04  1.41E-02  0.87891
   1926.    5.192  1.03E-08  3.82E-06  7.94E-07  2.95E-04  0.00E+00  0.00E+00  8.05E-07  2.99E-04  1.41E-02  0.98749
   1928.    5.187  3.21E-09  1.19E-06  7.96E-07  2.96E-04  0.00E+00  0.00E+00  7.99E-07  2.97E-04  1.41E-02  0.99606
   1930.    5.181  2.45E-09  9.12E-07  7.92E-07  2.95E-04  0.00E+00  0.00E+00  7.94E-07  2.96E-04  1.41E-02  0.99698
   1932.    5.176  9.89E-09  3.69E-06  7.79E-07  2.91E-04  0.00E+00  0.00E+00  7.89E-07  2.95E-04  1.41E-02  0.98768
   1934.    5.171  1.02E-08  3.83E-06  7.74E-07  2.89E-04  0.00E+00  0.00E+00  7.84E-07  2.93E-04  1.41E-02  0.98723
   1936.    5.165  2.86E-09  1.07E-06  7.76E-07  2.91E-04  0.00E+00  0.00E+00  7.79E-07  2.92E-04  1.41E-02  0.99641
   1938.    5.160  3.59E-09  1.35E-06  7.70E-07  2.89E-04  0.00E+00  0.00E+00  7.74E-07  2.91E-04  1.41E-02  0.99545
   1940.    5.155  1.65E-08  6.22E-06  7.53E-07  2.83E-04  0.00E+00  0.00E+00  7.69E-07  2.89E-04  1.41E-02  0.97882
   1942.    5.149  1.20E-07  4.53E-05  6.46E-07  2.44E-04  0.00E+00  0.00E+00  7.66E-07  2.89E-04  1.41E-02  0.84554
   1944.    5.144  1.26E-07  4.77E-05  6.35E-07  2.40E-04  0.00E+00  0.00E+00  7.61E-07  2.88E-04  1.41E-02  0.83716
   1946.    5.139  4.98E-08  1.89E-05  7.05E-07  2.67E-04  0.00E+00  0.00E+00  7.55E-07  2.86E-04  1.41E-02  0.93533
   1948.    5.133  1.42E-08  5.38E-06  7.35E-07  2.79E-04  0.00E+00  0.00E+00  7.49E-07  2.84E-04  1.41E-02  0.98153
   1950.    5.128  3.24E-09  1.23E-06  7.41E-07  2.82E-04  0.00E+00  0.00E+00  7.44E-07  2.83E-04  1.41E-02  0.99573
   1952.    5.123  2.40E-09  9.16E-07  7.37E-07  2.81E-04  0.00E+00  0.00E+00  7.39E-07  2.82E-04  1.41E-02  0.99681
   1954.    5.118  1.56E-08  5.96E-06  7.19E-07  2.75E-04  0.00E+00  0.00E+00  7.35E-07  2.81E-04  1.41E-02  0.97910
   1956.    5.112  1.65E-08  6.32E-06  7.13E-07  2.73E-04  0.00E+00  0.00E+00  7.30E-07  2.79E-04  1.41E-02  0.97787
   1958.    5.107  3.83E-09  1.47E-06  7.21E-07  2.76E-04  0.00E+00  0.00E+00  7.25E-07  2.78E-04  1.41E-02  0.99483
   1960.    5.102  8.86E-09  3.40E-06  7.11E-07  2.73E-04  0.00E+00  0.00E+00  7.20E-07  2.77E-04  1.41E-02  0.98792
   1962.    5.097  9.05E-09  3.49E-06  7.07E-07  2.72E-04  0.00E+00  0.00E+00  7.16E-07  2.75E-04  1.41E-02  0.98763
   1964.    5.092  1.18E-08  4.57E-06  6.99E-07  2.70E-04  0.00E+00  0.00E+00  7.11E-07  2.74E-04  1.41E-02  0.98359
   1966.    5.086  7.12E-08  2.75E-05  6.36E-07  2.46E-04  0.00E+00  0.00E+00  7.08E-07  2.73E-04  1.41E-02  0.90099
   1968.    5.081  5.73E-08  2.22E-05  6.45E-07  2.50E-04  0.00E+00  0.00E+00  7.03E-07  2.72E-04  1.41E-02  0.92020
   1970.    5.076  4.39E-09  1.70E-06  6.93E-07  2.69E-04  0.00E+00  0.00E+00  6.97E-07  2.71E-04  1.41E-02  0.99385
   1972.    5.071  1.03E-09  4.00E-07  6.91E-07  2.69E-04  0.00E+00  0.00E+00  6.92E-07  2.69E-04  1.41E-02  0.99854
   1974.    5.066  1.28E-09  4.98E-07  6.87E-07  2.68E-04  0.00E+00  0.00E+00  6.88E-07  2.68E-04  1.41E-02  0.99818
   1976.    5.061  2.31E-09  9.02E-07  6.81E-07  2.66E-04  0.00E+00  0.00E+00  6.83E-07  2.67E-04  1.41E-02  0.99669
   1978.    5.056  1.30E-09  5.10E-07  6.78E-07  2.65E-04  0.00E+00  0.00E+00  6.79E-07  2.66E-04  1.41E-02  0.99812
   1980.    5.051  9.54E-10  3.74E-07  6.74E-07  2.64E-04  0.00E+00  0.00E+00  6.74E-07  2.64E-04  1.41E-02  0.99861
   1982.    5.045  1.08E-09  4.22E-07  6.69E-07  2.63E-04  0.00E+00  0.00E+00  6.70E-07  2.63E-04  1.41E-02  0.99843
   1984.    5.040  1.05E-09  4.13E-07  6.65E-07  2.62E-04  0.00E+00  0.00E+00  6.66E-07  2.62E-04  1.41E-02  0.99845
   1986.    5.035  1.19E-08  4.70E-06  6.50E-07  2.56E-04  0.00E+00  0.00E+00  6.62E-07  2.61E-04  1.41E-02  0.98222
   1988.    5.030  3.46E-08  1.37E-05  6.23E-07  2.46E-04  0.00E+00  0.00E+00  6.58E-07  2.60E-04  1.41E-02  0.94838
   1990.    5.025  4.26E-08  1.69E-05  6.11E-07  2.42E-04  0.00E+00  0.00E+00  6.53E-07  2.59E-04  1.41E-02  0.93584
   1992.    5.020  9.13E-08  3.62E-05  5.59E-07  2.22E-04  0.00E+00  0.00E+00  6.50E-07  2.58E-04  1.41E-02  0.86198
   1994.    5.015  3.99E-08  1.59E-05  6.05E-07  2.41E-04  0.00E+00  0.00E+00  6.45E-07  2.56E-04  1.41E-02  0.93963
   1996.    5.010  1.77E-09  7.05E-07  6.38E-07  2.54E-04  0.00E+00  0.00E+00  6.40E-07  2.55E-04  1.41E-02  0.99729
   1998.    5.005  5.91E-09  2.36E-06  6.30E-07  2.51E-04  0.00E+00  0.00E+00  6.36E-07  2.54E-04  1.41E-02  0.99087
   2000.    5.000  5.47E-09  2.19E-06  6.26E-07  2.50E-04  0.00E+00  0.00E+00  6.32E-07  2.53E-04  1.41E-02  0.99153
  iv         2005
1                                             RADIANCE(WATTS/CM2-STER-XXX)
0  FREQ   WAVLEN    PATH THERMAL      SURFACE EMISSION    SURFACE REFLECTED     TOTAL RADIANCE   INTEGRAL    TOTAL
  (CM-1) (MICRN)    (CM-1)   (MICRN)    (CM-1)   (MICRN)    (CM-1)   (MICRN)    (CM-1)   (MICRN)    (CM-1)   TRANS

   2002.    4.995  6.95E-10  2.79E-07  6.27E-07  2.51E-04  0.00E+00  0.00E+00  6.27E-07  2.51E-04  1.41E-02  0.99891
   2004.    4.990  5.95E-10  2.39E-07  6.22E-07  2.50E-04  0.00E+00  0.00E+00  6.23E-07  2.50E-04  1.41E-02  0.99906
   2006.    4.985  2.55E-09  1.03E-06  6.16E-07  2.48E-04  0.00E+00  0.00E+00  6.19E-07  2.49E-04  1.41E-02  0.99595
   2008.    4.980  7.31E-09  2.95E-06  6.08E-07  2.45E-04  0.00E+00  0.00E+00  6.15E-07  2.48E-04  1.41E-02  0.98834
   2010.    4.975  4.01E-09  1.62E-06  6.07E-07  2.45E-04  0.00E+00  0.00E+00  6.11E-07  2.47E-04  1.41E-02  0.99360
   2012.    4.970  7.11E-10  2.88E-07  6.06E-07  2.45E-04  0.00E+00  0.00E+00  6.07E-07  2.46E-04  1.41E-02  0.99885
   2014.    4.965  1.96E-09  7.96E-07  6.01E-07  2.44E-04  0.00E+00  0.00E+00  6.03E-07  2.44E-04  1.41E-02  0.99680
   2016.    4.960  3.56E-08  1.45E-05  5.64E-07  2.29E-04  0.00E+00  0.00E+00  5.99E-07  2.44E-04  1.41E-02  0.94156
   2018.    4.955  4.72E-08  1.92E-05  5.48E-07  2.23E-04  0.00E+00  0.00E+00  5.95E-07  2.42E-04  1.41E-02  0.92235
   2020.    4.950  1.10E-08  4.50E-06  5.80E-07  2.37E-04  0.00E+00  0.00E+00  5.91E-07  2.41E-04  1.41E-02  0.98179
   2022.    4.946  4.16E-09  1.70E-06  5.82E-07  2.38E-04  0.00E+00  0.00E+00  5.87E-07  2.40E-04  1.41E-02  0.99305
   2024.    4.941  4.03E-09  1.65E-06  5.79E-07  2.37E-04  0.00E+00  0.00E+00  5.83E-07  2.39E-04  1.41E-02  0.99325
   2026.    4.936  2.81E-09  1.15E-06  5.76E-07  2.36E-04  0.00E+00  0.00E+00  5.79E-07  2.38E-04  1.41E-02  0.99524
   2028.    4.931  2.48E-09  1.02E-06  5.72E-07  2.35E-04  0.00E+00  0.00E+00  5.75E-07  2.36E-04  1.41E-02  0.99579
   2030.    4.926  3.73E-10  1.54E-07  5.71E-07  2.35E-04  0.00E+00  0.00E+00  5.71E-07  2.35E-04  1.41E-02  0.99936
   2032.    4.921  4.59E-10  1.89E-07  5.67E-07  2.34E-04  0.00E+00  0.00E+00  5.67E-07  2.34E-04  1.41E-02  0.99921
   2034.    4.916  8.38E-10  3.47E-07  5.62E-07  2.33E-04  0.00E+00  0.00E+00  5.63E-07  2.33E-04  1.41E-02  0.99854
   2036.    4.912  1.00E-09  4.16E-07  5.59E-07  2.32E-04  0.00E+00  0.00E+00  5.60E-07  2.32E-04  1.41E-02  0.99824
   2038.    4.907  1.79E-09  7.44E-07  5.54E-07  2.30E-04  0.00E+00  0.00E+00  5.56E-07  2.31E-04  1.42E-02  0.99685
   2040.    4.902  1.50E-08  6.26E-06  5.37E-07  2.24E-04  0.00E+00  0.00E+00  5.52E-07  2.30E-04  1.42E-02  0.97325
   2042.    4.897  1.73E-08  7.22E-06  5.31E-07  2.22E-04  0.00E+00  0.00E+00  5.49E-07  2.29E-04  1.42E-02  0.96919
   2044.    4.892  5.80E-09  2.42E-06  5.39E-07  2.25E-04  0.00E+00  0.00E+00  5.45E-07  2.28E-04  1.42E-02  0.98960
   2046.    4.888  2.87E-09  1.20E-06  5.38E-07  2.25E-04  0.00E+00  0.00E+00  5.41E-07  2.26E-04  1.42E-02  0.99483
   2048.    4.883  1.24E-09  5.20E-07  5.36E-07  2.25E-04  0.00E+00  0.00E+00  5.37E-07  2.25E-04  1.42E-02  0.99775
   2050.    4.878  3.02E-10  1.27E-07  5.33E-07  2.24E-04  0.00E+00  0.00E+00  5.34E-07  2.24E-04  1.42E-02  0.99945
   2052.    4.873  3.40E-10  1.43E-07  5.30E-07  2.23E-04  0.00E+00  0.00E+00  5.30E-07  2.23E-04  1.42E-02  0.99937
   2054.    4.869  3.54E-10  1.49E-07  5.26E-07  2.22E-04  0.00E+00  0.00E+00  5.27E-07  2.22E-04  1.42E-02  0.99934
   2056.    4.864  2.72E-10  1.15E-07  5.23E-07  2.21E-04  0.00E+00  0.00E+00  5.23E-07  2.21E-04  1.42E-02  0.99949
   2058.    4.859  1.57E-09  6.65E-07  5.18E-07  2.19E-04  0.00E+00  0.00E+00  5.19E-07  2.20E-04  1.42E-02  0.99703
   2060.    4.854  4.31E-09  1.83E-06  5.12E-07  2.17E-04  0.00E+00  0.00E+00  5.16E-07  2.19E-04  1.42E-02  0.99184
   2062.    4.850  2.16E-09  9.20E-07  5.10E-07  2.17E-04  0.00E+00  0.00E+00  5.12E-07  2.18E-04  1.42E-02  0.99588
   2064.    4.845  1.60E-08  6.84E-06  4.93E-07  2.10E-04  0.00E+00  0.00E+00  5.09E-07  2.17E-04  1.42E-02  0.96908
   2066.    4.840  1.95E-08  8.33E-06  4.86E-07  2.08E-04  0.00E+00  0.00E+00  5.06E-07  2.16E-04  1.42E-02  0.96238
   2068.    4.836  2.43E-09  1.04E-06  5.00E-07  2.14E-04  0.00E+00  0.00E+00  5.02E-07  2.15E-04  1.42E-02  0.99530
   2070.    4.831  2.38E-10  1.02E-07  4.98E-07  2.14E-04  0.00E+00  0.00E+00  4.99E-07  2.14E-04  1.42E-02  0.99953
   2072.    4.826  1.02E-09  4.38E-07  4.94E-07  2.12E-04  0.00E+00  0.00E+00  4.95E-07  2.13E-04  1.42E-02  0.99798
   2074.    4.822  2.39E-09  1.03E-06  4.90E-07  2.11E-04  0.00E+00  0.00E+00  4.92E-07  2.12E-04  1.42E-02  0.99526
   2076.    4.817  1.14E-09  4.92E-07  4.88E-07  2.10E-04  0.00E+00  0.00E+00  4.89E-07  2.11E-04  1.42E-02  0.99772
   2078.    4.812  1.21E-09  5.24E-07  4.84E-07  2.09E-04  0.00E+00  0.00E+00  4.85E-07  2.10E-04  1.42E-02  0.99756
   2080.    4.808  1.10E-09  4.76E-07  4.81E-07  2.08E-04  0.00E+00  0.00E+00  4.82E-07  2.09E-04  1.42E-02  0.99777
   2082.    4.803  6.23E-10  2.70E-07  4.78E-07  2.07E-04  0.00E+00  0.00E+00  4.79E-07  2.08E-04  1.42E-02  0.99873
   2084.    4.798  3.12E-10  1.36E-07  4.75E-07  2.06E-04  0.00E+00  0.00E+00  4.76E-07  2.07E-04  1.42E-02  0.99936
   2086.    4.794  1.52E-09  6.60E-07  4.71E-07  2.05E-04  0.00E+00  0.00E+00  4.72E-07  2.06E-04  1.42E-02  0.99685
   2088.    4.789  4.80E-09  2.09E-06  4.64E-07  2.02E-04  0.00E+00  0.00E+00  4.69E-07  2.05E-04  1.42E-02  0.98997
   2090.    4.785  9.92E-09  4.33E-06  4.56E-07  1.99E-04  0.00E+00  0.00E+00  4.66E-07  2.04E-04  1.42E-02  0.97922
   2092.    4.780  3.68E-09  1.61E-06  4.59E-07  2.01E-04  0.00E+00  0.00E+00  4.63E-07  2.03E-04  1.42E-02  0.99228
   2094.    4.776  3.29E-10  1.44E-07  4.59E-07  2.01E-04  0.00E+00  0.00E+00  4.60E-07  2.02E-04  1.42E-02  0.99930
   2096.    4.771  5.20E-10  2.29E-07  4.56E-07  2.00E-04  0.00E+00  0.00E+00  4.56E-07  2.01E-04  1.42E-02  0.99889
   2098.    4.766  6.34E-10  2.79E-07  4.53E-07  1.99E-04  0.00E+00  0.00E+00  4.53E-07  2.00E-04  1.42E-02  0.99864
   2100.    4.762  6.72E-10  2.96E-07  4.50E-07  1.98E-04  0.00E+00  0.00E+00  4.50E-07  1.99E-04  1.42E-02  0.99854
  iv         2105
1                                             RADIANCE(WATTS/CM2-STER-XXX)
0  FREQ   WAVLEN    PATH THERMAL      SURFACE EMISSION    SURFACE REFLECTED     TOTAL RADIANCE   INTEGRAL    TOTAL
  (CM-1) (MICRN)    (CM-1)   (MICRN)    (CM-1)   (MICRN)    (CM-1)   (MICRN)    (CM-1)   (MICRN)    (CM-1)   TRANS

   2102.    4.757  3.01E-10  1.33E-07  4.47E-07  1.97E-04  0.00E+00  0.00E+00  4.47E-07  1.98E-04  1.42E-02  0.99935
   2104.    4.753  1.97E-10  8.72E-08  4.44E-07  1.97E-04  0.00E+00  0.00E+00  4.44E-07  1.97E-04  1.42E-02  0.99957
   2106.    4.748  4.53E-10  2.01E-07  4.41E-07  1.95E-04  0.00E+00  0.00E+00  4.41E-07  1.96E-04  1.42E-02  0.99900
   2108.    4.744  3.80E-10  1.69E-07  4.38E-07  1.95E-04  0.00E+00  0.00E+00  4.38E-07  1.95E-04  1.42E-02  0.99916
   2110.    4.739  1.51E-10  6.73E-08  4.35E-07  1.94E-04  0.00E+00  0.00E+00  4.35E-07  1.94E-04  1.42E-02  0.99966
   2112.    4.735  3.27E-10  1.46E-07  4.32E-07  1.93E-04  0.00E+00  0.00E+00  4.32E-07  1.93E-04  1.42E-02  0.99926
   2114.    4.730  2.85E-09  1.27E-06  4.26E-07  1.91E-04  0.00E+00  0.00E+00  4.29E-07  1.92E-04  1.42E-02  0.99351
   2116.    4.726  2.59E-09  1.16E-06  4.24E-07  1.90E-04  0.00E+00  0.00E+00  4.26E-07  1.91E-04  1.42E-02  0.99410
   2118.    4.721  1.87E-10  8.37E-08  4.23E-07  1.90E-04  0.00E+00  0.00E+00  4.23E-07  1.90E-04  1.42E-02  0.99957
   2120.    4.717  1.97E-10  8.86E-08  4.20E-07  1.89E-04  0.00E+00  0.00E+00  4.20E-07  1.89E-04  1.42E-02  0.99954
   2122.    4.713  3.36E-10  1.51E-07  4.17E-07  1.88E-04  0.00E+00  0.00E+00  4.18E-07  1.88E-04  1.42E-02  0.99921
   2124.    4.708  4.57E-10  2.06E-07  4.14E-07  1.87E-04  0.00E+00  0.00E+00  4.15E-07  1.87E-04  1.42E-02  0.99893
   2126.    4.704  2.83E-10  1.28E-07  4.12E-07  1.86E-04  0.00E+00  0.00E+00  4.12E-07  1.86E-04  1.42E-02  0.99933
   2128.    4.699  7.50E-11  3.40E-08  4.09E-07  1.85E-04  0.00E+00  0.00E+00  4.09E-07  1.85E-04  1.42E-02  0.99982
   2130.    4.695  8.96E-11  4.06E-08  4.06E-07  1.84E-04  0.00E+00  0.00E+00  4.06E-07  1.84E-04  1.42E-02  0.99979
   2132.    4.690  7.61E-11  3.46E-08  4.03E-07  1.83E-04  0.00E+00  0.00E+00  4.03E-07  1.83E-04  1.42E-02  0.99982
   2134.    4.686  9.76E-10  4.45E-07  4.00E-07  1.82E-04  0.00E+00  0.00E+00  4.01E-07  1.82E-04  1.42E-02  0.99761
   2136.    4.682  3.21E-09  1.47E-06  3.95E-07  1.80E-04  0.00E+00  0.00E+00  3.98E-07  1.82E-04  1.42E-02  0.99213
   2138.    4.677  2.19E-09  9.99E-07  3.93E-07  1.80E-04  0.00E+00  0.00E+00  3.95E-07  1.81E-04  1.42E-02  0.99462
   2140.    4.673  8.66E-10  3.97E-07  3.92E-07  1.79E-04  0.00E+00  0.00E+00  3.93E-07  1.80E-04  1.42E-02  0.99786
   2142.    4.669  1.34E-10  6.16E-08  3.90E-07  1.79E-04  0.00E+00  0.00E+00  3.90E-07  1.79E-04  1.42E-02  0.99967
   2144.    4.664  4.79E-10  2.20E-07  3.87E-07  1.78E-04  0.00E+00  0.00E+00  3.87E-07  1.78E-04  1.42E-02  0.99879
   2146.    4.660  7.02E-10  3.23E-07  3.84E-07  1.77E-04  0.00E+00  0.00E+00  3.84E-07  1.77E-04  1.42E-02  0.99822
   2148.    4.655  3.39E-10  1.56E-07  3.81E-07  1.76E-04  0.00E+00  0.00E+00  3.82E-07  1.76E-04  1.42E-02  0.99914
   2150.    4.651  1.28E-10  5.90E-08  3.79E-07  1.75E-04  0.00E+00  0.00E+00  3.79E-07  1.75E-04  1.42E-02  0.99967
   2152.    4.647  3.53E-10  1.63E-07  3.76E-07  1.74E-04  0.00E+00  0.00E+00  3.77E-07  1.74E-04  1.42E-02  0.99909
   2154.    4.643  3.47E-10  1.61E-07  3.74E-07  1.73E-04  0.00E+00  0.00E+00  3.74E-07  1.74E-04  1.42E-02  0.99910
   2156.    4.638  1.64E-10  7.63E-08  3.71E-07  1.73E-04  0.00E+00  0.00E+00  3.71E-07  1.73E-04  1.42E-02  0.99957
   2158.    4.634  1.34E-10  6.22E-08  3.69E-07  1.72E-04  0.00E+00  0.00E+00  3.69E-07  1.72E-04  1.42E-02  0.99965
   2160.    4.630  4.26E-10  1.99E-07  3.66E-07  1.71E-04  0.00E+00  0.00E+00  3.66E-07  1.71E-04  1.42E-02  0.99886
   2162.    4.625  1.22E-09  5.69E-07  3.63E-07  1.69E-04  0.00E+00  0.00E+00  3.64E-07  1.70E-04  1.42E-02  0.99675
   2164.    4.621  5.44E-10  2.55E-07  3.61E-07  1.69E-04  0.00E+00  0.00E+00  3.61E-07  1.69E-04  1.42E-02  0.99854
   2166.    4.617  6.74E-11  3.16E-08  3.59E-07  1.68E-04  0.00E+00  0.00E+00  3.59E-07  1.68E-04  1.42E-02  0.99982
   2168.    4.613  5.39E-11  2.53E-08  3.56E-07  1.67E-04  0.00E+00  0.00E+00  3.56E-07  1.67E-04  1.42E-02  0.99985
   2170.    4.608  1.16E-10  5.46E-08  3.54E-07  1.67E-04  0.00E+00  0.00E+00  3.54E-07  1.67E-04  1.42E-02  0.99968
   2172.    4.604  1.44E-10  6.78E-08  3.51E-07  1.66E-04  0.00E+00  0.00E+00  3.51E-07  1.66E-04  1.42E-02  0.99960
   2174.    4.600  6.59E-11  3.11E-08  3.49E-07  1.65E-04  0.00E+00  0.00E+00  3.49E-07  1.65E-04  1.42E-02  0.99982
   2176.    4.596  5.07E-11  2.40E-08  3.47E-07  1.64E-04  0.00E+00  0.00E+00  3.47E-07  1.64E-04  1.42E-02  0.99986
   2178.    4.591  4.45E-11  2.11E-08  3.44E-07  1.63E-04  0.00E+00  0.00E+00  3.44E-07  1.63E-04  1.42E-02  0.99987
   2180.    4.587  1.50E-10  7.11E-08  3.42E-07  1.62E-04  0.00E+00  0.00E+00  3.42E-07  1.62E-04  1.42E-02  0.99957
   2182.    4.583  1.43E-10  6.80E-08  3.39E-07  1.62E-04  0.00E+00  0.00E+00  3.39E-07  1.62E-04  1.42E-02  0.99959
   2184.    4.579  9.99E-11  4.77E-08  3.37E-07  1.61E-04  0.00E+00  0.00E+00  3.37E-07  1.61E-04  1.42E-02  0.99971
   2186.    4.575  3.14E-10  1.50E-07  3.34E-07  1.60E-04  0.00E+00  0.00E+00  3.35E-07  1.60E-04  1.42E-02  0.99909
   2188.    4.570  2.72E-10  1.30E-07  3.32E-07  1.59E-04  0.00E+00  0.00E+00  3.32E-07  1.59E-04  1.42E-02  0.99921
   2190.    4.566  6.44E-11  3.09E-08  3.30E-07  1.58E-04  0.00E+00  0.00E+00  3.30E-07  1.58E-04  1.42E-02  0.99981
   2192.    4.562  7.47E-11  3.59E-08  3.28E-07  1.57E-04  0.00E+00  0.00E+00  3.28E-07  1.58E-04  1.42E-02  0.99978
   2194.    4.558  9.22E-11  4.44E-08  3.25E-07  1.57E-04  0.00E+00  0.00E+00  3.26E-07  1.57E-04  1.42E-02  0.99973
   2196.    4.554  4.23E-11  2.04E-08  3.23E-07  1.56E-04  0.00E+00  0.00E+00  3.23E-07  1.56E-04  1.42E-02  0.99987
   2198.    4.550  8.39E-11  4.05E-08  3.21E-07  1.55E-04  0.00E+00  0.00E+00  3.21E-07  1.55E-04  1.42E-02  0.99975
   2200.    4.545  1.56E-10  7.55E-08  3.19E-07  1.54E-04  0.00E+00  0.00E+00  3.19E-07  1.54E-04  1.42E-02  0.99952
0INTEGRATED ABSORPTION FROM    2 TO 2200 CM-1 =    431.49 CM-1
 AVERAGE TRANSMITTANCE =0.8037

0INTEGRATED RADIANCE =  1.422E-02 WATTS CM-2 STER-1
 MINIMUM RADIANCE    =  1.301E-09 WATTS CM-2 STER-1 (CM-1)-1 AT        2.0 CM-1
 MAXIMUM RADIANCE    =  1.502E-05 WATTS CM-2 STER-1 (CM-1)-1 AT      592.0 CM-1
 BOUNDARY TEMPERATURE =     299.70 K
 BOUNDARY EMISSIVITY =       0.971
0 CARD 5 *****    0


